# Wavelength	Extinction
# (nm)		(mag)
280.000000	1.015
280.500000	1.015
281.000000	1.015
281.500000	1.015
282.000000	0.9915
282.500000	0.9915
283.000000	0.9915
283.500000	0.9915
284.000000	0.9915
284.500000	0.9915
285.000000	0.9915
285.500000	0.9915
286.000000	0.9915
286.500000	0.9915
287.000000	0.9915
287.500000	0.9915
288.000000	0.9915
288.500000	0.9705
289.000000	0.9705
289.500000	0.9705
290.000000	0.9705
290.500000	0.9705
291.000000	0.9705
291.500000	0.9705
292.000000	0.9705
292.500000	0.9705
293.000000	0.9705
293.500000	0.9705
294.000000	0.9705
294.500000	0.9705
295.000000	0.9705
295.500000	0.9518
296.000000	0.9518
296.500000	0.9518
297.000000	0.9518
297.500000	0.9518
298.000000	0.9518
298.500000	0.9518
299.000000	0.9518
299.500000	0.9518
300.000000	0.9518
300.500000	0.9518
301.000000	0.9518
301.500000	0.9518
302.000000	0.9347
302.500000	0.9347
303.000000	0.9347
303.500000	0.9347
304.000000	0.9347
304.500000	0.9347
305.000000	0.9347
305.500000	0.9347
306.000000	0.9347
306.500000	0.9347
307.000000	0.9347
307.500000	0.9347
308.000000	0.9347
308.500000	0.9347
309.000000	0.9347
309.500000	0.9153
310.000000	0.9153
310.500000	0.9153
311.000000	0.9153
311.500000	0.9153
312.000000	0.9153
312.500000	0.9153
313.000000	0.9153
313.500000	0.9153
314.000000	0.9153
314.500000	0.9153
315.000000	0.9153
315.500000	0.9153
316.000000	0.9153
316.500000	0.896
317.000000	0.896
317.500000	0.896
318.000000	0.896
318.500000	0.896
319.000000	0.896
319.500000	0.896
320.000000	0.896
320.500000	0.896
321.000000	0.896
321.500000	0.896
322.000000	0.896
322.500000	0.896
323.000000	0.896
323.500000	0.896
324.000000	0.877
324.500000	0.877
325.000000	0.877
325.500000	0.877
326.000000	0.877
326.500000	0.877
327.000000	0.877
327.500000	0.877
328.000000	0.877
328.500000	0.877
329.000000	0.877
329.500000	0.877
330.000000	0.877
330.500000	0.877
331.000000	0.877
331.500000	0.8584
332.000000	0.8584
332.500000	0.8584
333.000000	0.8584
333.500000	0.8584
334.000000	0.8584
334.500000	0.8584
335.000000	0.8584
335.500000	0.8584
336.000000	0.8584
336.500000	0.8584
337.000000	0.8584
337.500000	0.8584
338.000000	0.8584
338.500000	0.8584
339.000000	0.8401
339.500000	0.8401
340.000000	0.8401
340.500000	0.8401
341.000000	0.8401
341.500000	0.8401
342.000000	0.8401
342.500000	0.8401
343.000000	0.8401
343.500000	0.8401
344.000000	0.8401
344.500000	0.8401
345.000000	0.8401
345.500000	0.8401
346.000000	0.8401
346.500000	0.8401
347.000000	0.822
347.500000	0.822
348.000000	0.822
348.500000	0.822
349.000000	0.822
349.500000	0.822
350.000000	0.822
350.500000	0.8147
351.000000	0.8147
351.500000	0.8147
352.000000	0.8147
352.500000	0.8147
353.000000	0.8147
353.500000	0.8147
354.000000	0.8147
354.500000	0.8147
355.000000	0.8041
355.500000	0.8037
356.000000	0.8037
356.500000	0.8037
357.000000	0.8037
357.500000	0.8037
358.000000	0.8037
358.500000	0.8037
359.000000	0.8037
359.500000	0.8037
360.000000	0.8037
360.500000	0.8037
361.000000	0.8037
361.500000	0.8037
362.000000	0.8037
362.500000	0.8037
363.000000	0.8037
363.500000	0.7863
364.000000	0.7854
364.500000	0.7854
365.000000	0.7854
365.500000	0.7854
366.000000	0.7854
366.500000	0.7854
367.000000	0.7854
367.500000	0.7854
368.000000	0.7854
368.500000	0.7854
369.000000	0.7854
369.500000	0.7854
370.000000	0.7854
370.500000	0.7854
371.000000	0.7854
371.500000	0.7854
372.000000	0.7686
372.500000	0.7686
373.000000	0.7686
373.500000	0.7686
374.000000	0.7686
374.500000	0.7686
375.000000	0.7686
375.500000	0.7686
376.000000	0.7686
376.500000	0.7686
377.000000	0.7686
377.500000	0.7686
378.000000	0.7686
378.500000	0.7686
379.000000	0.7686
379.500000	0.7686
380.000000	0.7686
380.500000	0.7511
381.000000	0.7511
381.500000	0.7511
382.000000	0.7511
382.500000	0.7511
383.000000	0.7511
383.500000	0.7511
384.000000	0.7511
384.500000	0.7511
385.000000	0.7511
385.500000	0.7511
386.000000	0.7511
386.500000	0.7511
387.000000	0.7511
387.500000	0.7511
388.000000	0.7511
388.500000	0.7511
389.000000	0.7511
389.500000	0.7338
390.000000	0.7338
390.500000	0.7338
391.000000	0.7338
391.500000	0.7338
392.000000	0.7338
392.500000	0.7338
393.000000	0.7338
393.500000	0.7338
394.000000	0.7338
394.500000	0.7338
395.000000	0.7338
395.500000	0.7338
396.000000	0.7338
396.500000	0.7338
397.000000	0.7338
397.500000	0.7338
398.000000	0.7338
398.500000	0.7165
399.000000	0.7165
399.500000	0.7165
400.000000	0.7165
401.000000	0.7165
402.000000	0.7165
403.000000	0.7165
404.000000	0.7165
405.000000	0.7165
406.000000	0.7165
407.000000	0.7165
408.000000	0.6993
409.000000	0.6993
410.000000	0.6993
411.000000	0.6945
412.000000	0.6945
413.000000	0.6945
414.000000	0.6945
415.000000	0.6945
416.000000	0.6945
417.000000	0.6822
418.000000	0.6822
419.000000	0.6822
420.000000	0.6822
421.000000	0.6822
422.000000	0.6822
423.000000	0.6822
424.000000	0.6822
425.000000	0.6822
426.000000	0.6822
427.000000	0.6651
428.000000	0.6651
429.000000	0.6651
430.000000	0.6651
431.000000	0.6651
432.000000	0.6651
433.000000	0.6651
434.000000	0.6651
435.000000	0.6651
436.000000	0.6651
437.000000	0.6482
438.000000	0.6482
439.000000	0.6482
440.000000	0.6482
441.000000	0.6415
442.000000	0.6415
443.000000	0.6415
444.000000	0.6415
445.000000	0.6415
446.000000	0.6415
447.000000	0.6314
448.000000	0.6314
449.000000	0.6314
450.000000	0.6314
451.000000	0.6314
452.000000	0.6314
453.000000	0.6314
454.000000	0.6314
455.000000	0.6314
456.000000	0.6314
457.000000	0.6314
458.000000	0.6146
459.000000	0.6146
460.000000	0.6146
461.000000	0.6146
462.000000	0.6146
463.000000	0.6146
464.000000	0.6146
465.000000	0.6146
466.000000	0.6146
467.000000	0.6146
468.000000	0.598
469.000000	0.5968
470.000000	0.5968
471.000000	0.5945
472.000000	0.5945
473.000000	0.5945
474.000000	0.5945
475.000000	0.5945
476.000000	0.5945
477.000000	0.5945
478.000000	0.5945
479.000000	0.5814
480.000000	0.5814
481.000000	0.5814
482.000000	0.5814
483.000000	0.5814
484.000000	0.5814
485.000000	0.5814
486.000000	0.5814
487.000000	0.5704
488.000000	0.5704
489.000000	0.5704
490.000000	0.565
491.000000	0.565
492.000000	0.565
493.000000	0.565
494.000000	0.565
495.000000	0.565
496.000000	0.565
497.000000	0.565
498.000000	0.565
499.000000	0.565
500.000000	0.565
501.000000	0.565
502.000000	0.5488
503.000000	0.5488
504.000000	0.5488
505.000000	0.5488
506.000000	0.5488
507.000000	0.5488
508.000000	0.5488
509.000000	0.5488
510.000000	0.5488
511.000000	0.5488
512.000000	0.5488
513.000000	0.5329
514.000000	0.5329
515.000000	0.5329
516.000000	0.5329
517.000000	0.5329
518.000000	0.5329
519.000000	0.5329
520.000000	0.5329
521.000000	0.5329
522.000000	0.5329
523.000000	0.5329
524.000000	0.5329
525.000000	0.5172
526.000000	0.5172
527.000000	0.5172
528.000000	0.5172
529.000000	0.5172
530.000000	0.5172
531.000000	0.5172
532.000000	0.5172
533.000000	0.5172
534.000000	0.5172
535.000000	0.5172
536.000000	0.5172
537.000000	0.5172
538.000000	0.5018
539.000000	0.5018
540.000000	0.5018
541.000000	0.5018
542.000000	0.5018
543.000000	0.5018
544.000000	0.5018
545.000000	0.5018
546.000000	0.5018
547.000000	0.5018
548.000000	0.4896
549.000000	0.4896
550.000000	0.4866
551.000000	0.4866
552.000000	0.4866
553.000000	0.4866
554.000000	0.4866
555.000000	0.4866
556.000000	0.4802
557.000000	0.4802
558.000000	0.4802
559.000000	0.4802
560.000000	0.4802
561.000000	0.4802
562.000000	0.4802
563.000000	0.4717
564.000000	0.4717
565.000000	0.4717
566.000000	0.4717
567.000000	0.4717
568.000000	0.4717
569.000000	0.4717
570.000000	0.4717
571.000000	0.4717
572.000000	0.4717
573.000000	0.4717
574.000000	0.4717
575.000000	0.4717
576.000000	0.4572
577.000000	0.4572
578.000000	0.4572
579.000000	0.4572
580.000000	0.4572
581.000000	0.4572
582.000000	0.4572
583.000000	0.4572
584.000000	0.4572
585.000000	0.4572
586.000000	0.4572
587.000000	0.4572
588.000000	0.4572
589.000000	0.4429
590.000000	0.4429
591.000000	0.4429
592.000000	0.4429
593.000000	0.4429
594.000000	0.4429
595.000000	0.4429
596.000000	0.4429
597.000000	0.4429
598.000000	0.4429
599.000000	0.4429
600.000000	0.4429
601.000000	0.4429
602.000000	0.4429
603.000000	0.429
604.000000	0.429
605.000000	0.429
606.000000	0.429
607.000000	0.429
608.000000	0.429
609.000000	0.429
610.000000	0.429
611.000000	0.429
612.000000	0.429
613.000000	0.429
614.000000	0.429
615.000000	0.429
616.000000	0.429
617.000000	0.4154
618.000000	0.4154
619.000000	0.4154
620.000000	0.4154
621.000000	0.4154
622.000000	0.4154
623.000000	0.4154
624.000000	0.4154
625.000000	0.4154
626.000000	0.4154
627.000000	0.4154
628.000000	0.4154
629.000000	0.4154
630.000000	0.4154
631.000000	0.4021
632.000000	0.4021
633.000000	0.4021
634.000000	0.4021
635.000000	0.4021
636.000000	0.4021
637.000000	0.4021
638.000000	0.4021
639.000000	0.4021
640.000000	0.4021
641.000000	0.4021
642.000000	0.3927
643.000000	0.3927
644.000000	0.3927
645.000000	0.3927
646.000000	0.3891
647.000000	0.3891
648.000000	0.3891
649.000000	0.3891
650.000000	0.386
651.000000	0.386
652.000000	0.386
653.000000	0.386
654.000000	0.386
655.000000	0.386
656.000000	0.386
657.000000	0.3801
658.000000	0.3801
659.000000	0.3801
660.000000	0.3801
661.000000	0.3764
662.000000	0.3764
663.000000	0.3764
664.000000	0.3764
665.000000	0.3764
666.000000	0.3764
667.000000	0.3764
668.000000	0.3764
669.000000	0.3764
670.000000	0.3764
671.000000	0.3764
672.000000	0.3764
673.000000	0.3764
674.000000	0.3764
675.000000	0.3764
676.000000	0.3764
677.000000	0.364
678.000000	0.364
679.000000	0.364
680.000000	0.364
681.000000	0.364
682.000000	0.364
683.000000	0.364
684.000000	0.364
685.000000	0.364
686.000000	0.364
687.000000	0.364
688.000000	0.364
689.000000	0.364
690.000000	0.364
691.000000	0.364
692.000000	0.352
693.000000	0.352
694.000000	0.352
695.000000	0.352
696.000000	0.352
697.000000	0.352
698.000000	0.352
699.000000	0.352
700.000000	0.352
701.000000	0.352
702.000000	0.352
703.000000	0.352
704.000000	0.352
705.000000	0.352
706.000000	0.352
707.000000	0.352
708.000000	0.3403
709.000000	0.3403
710.000000	0.3403
711.000000	0.3403
712.000000	0.3403
713.000000	0.3403
714.000000	0.3403
715.000000	0.3403
716.000000	0.3403
717.000000	0.3403
718.000000	0.3403
719.000000	0.3403
720.000000	0.3403
721.000000	0.3403
722.000000	0.3403
723.000000	0.3403
724.000000	0.3403
725.000000	0.3289
726.000000	0.3289
727.000000	0.3289
728.000000	0.3289
729.000000	0.3289
730.000000	0.3289
731.000000	0.3289
732.000000	0.3289
733.000000	0.3289
734.000000	0.3289
735.000000	0.3289
736.000000	0.3289
737.000000	0.3289
738.000000	0.3289
739.000000	0.3289
740.000000	0.3289
741.000000	0.3289
742.000000	0.3178
743.000000	0.3178
744.000000	0.3178
745.000000	0.3178
746.000000	0.3178
747.000000	0.3178
748.000000	0.3178
749.000000	0.3136
750.000000	0.3136
751.000000	0.3136
752.000000	0.3136
753.000000	0.3136
754.000000	0.3136
755.000000	0.3136
756.000000	0.3136
757.000000	0.3136
758.000000	0.3136
759.000000	0.307
760.000000	0.307
761.000000	0.307
762.000000	0.307
763.000000	0.307
764.000000	0.307
765.000000	0.307
766.000000	0.307
767.000000	0.307
768.000000	0.307
769.000000	0.307
770.000000	0.307
771.000000	0.307
772.000000	0.307
773.000000	0.307
774.000000	0.307
775.000000	0.307
776.000000	0.307
777.000000	0.2966
778.000000	0.2966
779.000000	0.2966
780.000000	0.2966
781.000000	0.2966
782.000000	0.2966
783.000000	0.2966
784.000000	0.2966
785.000000	0.2966
786.000000	0.2966
787.000000	0.2966
788.000000	0.2966
789.000000	0.2966
790.000000	0.2966
791.000000	0.2966
792.000000	0.2966
793.000000	0.2966
794.000000	0.2966
795.000000	0.2864
796.000000	0.2864
797.000000	0.2864
798.000000	0.2864
799.000000	0.2864
800.000000	0.2864
801.000000	0.2864
802.000000	0.2864
803.000000	0.2823
804.000000	0.2823
805.000000	0.2823
806.000000	0.2823
807.000000	0.2823
808.000000	0.2823
809.000000	0.2823
810.000000	0.2823
811.000000	0.2823
812.000000	0.2823
813.000000	0.2765
814.000000	0.2765
815.000000	0.2765
816.000000	0.2765
817.000000	0.2765
818.000000	0.2765
819.000000	0.2765
820.000000	0.2765
821.000000	0.2765
822.000000	0.2765
823.000000	0.2765
824.000000	0.2765
825.000000	0.2765
826.000000	0.2765
827.000000	0.2765
828.000000	0.2765
829.000000	0.2765
830.000000	0.2765
831.000000	0.2765
832.000000	0.2669
833.000000	0.2669
834.000000	0.2669
835.000000	0.2669
836.000000	0.2669
837.000000	0.2669
838.000000	0.2669
839.000000	0.2669
840.000000	0.2669
841.000000	0.2669
842.000000	0.2669
843.000000	0.2669
844.000000	0.2669
845.000000	0.2669
846.000000	0.2669
847.000000	0.2669
848.000000	0.2669
849.000000	0.2669
850.000000	0.2669
851.000000	0.2669
852.000000	0.2576
853.000000	0.2576
854.000000	0.2576
855.000000	0.2576
856.000000	0.2576
857.000000	0.2576
858.000000	0.2576
859.000000	0.2576
860.000000	0.2576
861.000000	0.2576
862.000000	0.2576
863.000000	0.2576
864.000000	0.2576
865.000000	0.2576
866.000000	0.251
867.000000	0.251
868.000000	0.251
869.000000	0.251
870.000000	0.251
871.000000	0.2485
872.000000	0.2485
873.000000	0.2485
874.000000	0.2485
875.000000	0.2485
876.000000	0.2485
877.000000	0.2485
878.000000	0.2485
879.000000	0.2485
880.000000	0.2485
881.000000	0.2485
882.000000	0.2485
883.000000	0.2485
884.000000	0.2485
885.000000	0.2485
886.000000	0.2485
887.000000	0.2485
888.000000	0.2485
889.000000	0.2485
890.000000	0.2485
891.000000	0.2485
892.000000	0.2398
893.000000	0.2398
894.000000	0.239
895.000000	0.239
896.000000	0.239
897.000000	0.239
898.000000	0.239
899.000000	0.239
900.000000	0.239
901.000000	0.239
902.000000	0.239
903.000000	0.239
904.000000	0.239
905.000000	0.239
906.000000	0.239
907.000000	0.239
908.000000	0.239
909.000000	0.239
910.000000	0.239
911.000000	0.239
912.000000	0.239
913.000000	0.2312
914.000000	0.2312
915.000000	0.2312
916.000000	0.2312
917.000000	0.2312
918.000000	0.2312
919.000000	0.2312
920.000000	0.2312
921.000000	0.2312
922.000000	0.2312
923.000000	0.2312
924.000000	0.2312
925.000000	0.2312
926.000000	0.2312
927.000000	0.2312
928.000000	0.2312
929.000000	0.2312
930.000000	0.2312
931.000000	0.2312
932.000000	0.2312
933.000000	0.2312
934.000000	0.2229
935.000000	0.2229
936.000000	0.2229
937.000000	0.2229
938.000000	0.2229
939.000000	0.2229
940.000000	0.2229
941.000000	0.2229
942.000000	0.2229
943.000000	0.2229
944.000000	0.2229
945.000000	0.2229
946.000000	0.2229
947.000000	0.2229
948.000000	0.2229
949.000000	0.2229
950.000000	0.2229
951.000000	0.2229
952.000000	0.2229
953.000000	0.2229
954.000000	0.2229
955.000000	0.2149
956.000000	0.2149
957.000000	0.2149
958.000000	0.2149
959.000000	0.2149
960.000000	0.2149
961.000000	0.2149
962.000000	0.2149
963.000000	0.2149
964.000000	0.2149
965.000000	0.2149
966.000000	0.2149
967.000000	0.2149
968.000000	0.2149
969.000000	0.2149
970.000000	0.2149
971.000000	0.2149
972.000000	0.2149
973.000000	0.2149
974.000000	0.2149
975.000000	0.2149
976.000000	0.2149
977.000000	0.2149
978.000000	0.2071
979.000000	0.2071
980.000000	0.2071
981.000000	0.2071
982.000000	0.2071
983.000000	0.2071
984.000000	0.2071
985.000000	0.2071
986.000000	0.2071
987.000000	0.2071
988.000000	0.2071
989.000000	0.2071
990.000000	0.2071
991.000000	0.2071
992.000000	0.2071
993.000000	0.2071
994.000000	0.2071
995.000000	0.2071
996.000000	0.2071
997.000000	0.2071
998.000000	0.2071
999.000000	0.2071
1000.000000	0.2071
1001.000000	0.1995
1002.000000	0.1995
1003.000000	0.1995
1004.000000	0.1995
1005.000000	0.1995
1006.000000	0.1995
1007.000000	0.1995
1008.000000	0.1995
1009.000000	0.1995
1010.000000	0.1995
1011.000000	0.1995
1012.000000	0.1995
1013.000000	0.1995
1014.000000	0.1995
1015.000000	0.1995
1016.000000	0.1995
1017.000000	0.1995
1018.000000	0.1995
1019.000000	0.1995
1020.000000	0.1995
1021.000000	0.1995
1022.000000	0.1995
1023.000000	0.1995
1024.000000	0.1922
1025.000000	0.1922
1026.000000	0.1922
1027.000000	0.1922
1028.000000	0.1922
1029.000000	0.1922
1030.000000	0.1922
1031.000000	0.1922
1032.000000	0.1922
1033.000000	0.1922
1034.000000	0.1922
1035.000000	0.1922
1036.000000	0.1922
1037.000000	0.1922
1038.000000	0.1922
1039.000000	0.1922
1040.000000	0.1922
1041.000000	0.1922
1042.000000	0.1922
1043.000000	0.1922
1044.000000	0.1922
1045.000000	0.1922
1046.000000	0.1922
1047.000000	0.1922
1048.000000	0.1852
1049.000000	0.1852
1050.000000	0.1852
1051.000000	0.1852
1052.000000	0.1852
1053.000000	0.1852
1054.000000	0.1852
1055.000000	0.1852
1056.000000	0.1852
1057.000000	0.1852
1058.000000	0.1852
1059.000000	0.1852
1060.000000	0.1852
1061.000000	0.1852
1062.000000	0.1852
1063.000000	0.1852
1064.000000	0.1852
1065.000000	0.1852
1066.000000	0.1852
1067.000000	0.1852
1068.000000	0.1852
1069.000000	0.1852
1070.000000	0.1852
1071.000000	0.1852
1072.000000	0.1785
1073.000000	0.1785
1074.000000	0.1785
1075.000000	0.1785
1076.000000	0.1785
1077.000000	0.1785
1078.000000	0.1785
1079.000000	0.1785
1080.000000	0.1785
1081.000000	0.1785
1082.000000	0.1785
1083.000000	0.1785
1084.000000	0.1785
1085.000000	0.1785
1086.000000	0.1785
1087.000000	0.1785
1088.000000	0.1785
1089.000000	0.1785
1090.000000	0.1785
1091.000000	0.1785
1092.000000	0.1785
1093.000000	0.1785
1094.000000	0.1785
1095.000000	0.1785
1096.000000	0.1785
1097.000000	0.172
1098.000000	0.172
1099.000000	0.172
1100.000000	0.172
1101.000000	0.172
1102.000000	0.172
1103.000000	0.172
1104.000000	0.172
1105.000000	0.172
1106.000000	0.172
1107.000000	0.172
1108.000000	0.172
1109.000000	0.172
1110.000000	0.172
1111.000000	0.172
1112.000000	0.172
1113.000000	0.172
1114.000000	0.172
1115.000000	0.172
1116.000000	0.172
1117.000000	0.172
1118.000000	0.172
1119.000000	0.172
1120.000000	0.172
1121.000000	0.172
1122.000000	0.172
1123.000000	0.1658
1124.000000	0.1658
1125.000000	0.1658
1126.000000	0.1658
1127.000000	0.1658
1128.000000	0.1658
1129.000000	0.1658
1130.000000	0.1658
1131.000000	0.1658
1132.000000	0.1658
1133.000000	0.1658
1134.000000	0.1658
1135.000000	0.1658
1136.000000	0.1658
1137.000000	0.1658
1138.000000	0.1658
1139.000000	0.1658
1140.000000	0.1658
1141.000000	0.1658
1142.000000	0.1658
1143.000000	0.1658
1144.000000	0.1658
1145.000000	0.1658
1146.000000	0.1658
1147.000000	0.1658
1148.000000	0.1658
1149.000000	0.1598
1150.000000	0.1598
1151.000000	0.1598
1152.000000	0.1598
1153.000000	0.1598
1154.000000	0.1598
1155.000000	0.1598
1156.000000	0.1598
1157.000000	0.1598
1158.000000	0.1598
1159.000000	0.1598
1160.000000	0.1598
1161.000000	0.1598
1162.000000	0.1598
1163.000000	0.1598
1164.000000	0.1598
1165.000000	0.1598
1166.000000	0.1598
1167.000000	0.1598
1168.000000	0.1598
1169.000000	0.1598
1170.000000	0.1598
1171.000000	0.1598
1172.000000	0.1598
1173.000000	0.1598
1174.000000	0.1598
1175.000000	0.154
1176.000000	0.154
1177.000000	0.154
1178.000000	0.154
1179.000000	0.154
1180.000000	0.154
1181.000000	0.154
1182.000000	0.154
1183.000000	0.154
1184.000000	0.154
1185.000000	0.154
1186.000000	0.154
1187.000000	0.154
1188.000000	0.154
1189.000000	0.154
1190.000000	0.154
1191.000000	0.154
1192.000000	0.154
1193.000000	0.154
1194.000000	0.154
1195.000000	0.154
1196.000000	0.154
1197.000000	0.154
1198.000000	0.154
1199.000000	0.154
1200.000000	0.154
1201.000000	0.154
1202.000000	0.154
1203.000000	0.1485
1204.000000	0.1485
1205.000000	0.1485
1206.000000	0.1485
1207.000000	0.1485
1208.000000	0.1485
1209.000000	0.1485
1210.000000	0.1485
1211.000000	0.1485
1212.000000	0.1485
1213.000000	0.1485
1214.000000	0.1485
1215.000000	0.1485
1216.000000	0.1485
1217.000000	0.1485
1218.000000	0.1485
1219.000000	0.1485
1220.000000	0.1485
1221.000000	0.1451
1222.000000	0.1451
1223.000000	0.1451
1224.000000	0.1451
1225.000000	0.1451
1226.000000	0.1451
1227.000000	0.1451
1228.000000	0.1451
1229.000000	0.1451
1230.000000	0.1451
1231.000000	0.1432
1232.000000	0.1432
1233.000000	0.1432
1234.000000	0.1432
1235.000000	0.1432
1236.000000	0.1432
1237.000000	0.1432
1238.000000	0.1432
1239.000000	0.1432
1240.000000	0.1432
1241.000000	0.1432
1242.000000	0.1432
1243.000000	0.1432
1244.000000	0.1432
1245.000000	0.1432
1246.000000	0.1432
1247.000000	0.1432
1248.000000	0.1432
1249.000000	0.1432
1250.000000	0.1432
1251.000000	0.1432
1252.000000	0.1432
1253.000000	0.1432
1254.000000	0.1432
1255.000000	0.1432
1256.000000	0.1432
1257.000000	0.1432
1258.000000	0.1432
1259.000000	0.1381
1260.000000	0.1381
1261.000000	0.1381
1262.000000	0.1381
1263.000000	0.1381
1264.000000	0.1381
1265.000000	0.1381
1266.000000	0.1381
1267.000000	0.1381
1268.000000	0.1381
1269.000000	0.1381
1270.000000	0.1381
1271.000000	0.1381
1272.000000	0.1381
1273.000000	0.1381
1274.000000	0.1381
1275.000000	0.1381
1276.000000	0.1381
1277.000000	0.1381
1278.000000	0.1381
1279.000000	0.1381
1280.000000	0.1381
1281.000000	0.1381
1282.000000	0.1342
1283.000000	0.1342
1284.000000	0.1342
1285.000000	0.1342
1286.000000	0.1342
1287.000000	0.1342
1288.000000	0.1342
1289.000000	0.1332
1290.000000	0.1332
1291.000000	0.1332
1292.000000	0.1332
1293.000000	0.1332
1294.000000	0.1332
1295.000000	0.1332
1296.000000	0.1332
1297.000000	0.1332
1298.000000	0.1332
1299.000000	0.1332
1300.000000	0.1332
1301.000000	0.1332
1302.000000	0.1332
1303.000000	0.1332
1304.000000	0.1332
1305.000000	0.1332
1306.000000	0.1332
1307.000000	0.1332
1308.000000	0.1332
1309.000000	0.1332
1310.000000	0.1332
1311.000000	0.1332
1312.000000	0.1332
1313.000000	0.1332
1314.000000	0.1332
1315.000000	0.1332
1316.000000	0.1332
1317.000000	0.1332
1318.000000	0.1332
1319.000000	0.1284
1320.000000	0.1284
1321.000000	0.1284
1322.000000	0.1284
1323.000000	0.1284
1324.000000	0.1284
1325.000000	0.1284
1326.000000	0.1284
1327.000000	0.1284
1328.000000	0.1284
1329.000000	0.1284
1330.000000	0.1284
1331.000000	0.1284
1332.000000	0.1284
1333.000000	0.1284
1334.000000	0.1284
1335.000000	0.1284
1336.000000	0.1284
1337.000000	0.1284
1338.000000	0.1284
1339.000000	0.1284
1340.000000	0.1284
1341.000000	0.1284
1342.000000	0.1284
1343.000000	0.1284
1344.000000	0.1284
1345.000000	0.1284
1346.000000	0.1284
1347.000000	0.1284
1348.000000	0.1284
1349.000000	0.1239
1350.000000	0.1239
1351.000000	0.1239
1352.000000	0.1239
1353.000000	0.1239
1354.000000	0.1239
1355.000000	0.1239
1356.000000	0.1239
1357.000000	0.1239
1358.000000	0.1239
1359.000000	0.1239
1360.000000	0.1239
1361.000000	0.1239
1362.000000	0.1239
1363.000000	0.1239
1364.000000	0.1239
1365.000000	0.1239
1366.000000	0.1239
1367.000000	0.1239
1368.000000	0.1239
1369.000000	0.1239
1370.000000	0.1239
1371.000000	0.1239
1372.000000	0.1239
1373.000000	0.1239
1374.000000	0.1239
1375.000000	0.1239
1376.000000	0.1239
1377.000000	0.1239
1378.000000	0.1239
1379.000000	0.1239
1380.000000	0.1239
1381.000000	0.1195
1382.000000	0.1195
1383.000000	0.1195
1384.000000	0.1195
1385.000000	0.1195
1386.000000	0.1195
1387.000000	0.1195
1388.000000	0.1195
1389.000000	0.1195
1390.000000	0.1195
1391.000000	0.1195
1392.000000	0.1195
1393.000000	0.1195
1394.000000	0.1195
1395.000000	0.1195
1396.000000	0.1195
1397.000000	0.1195
1398.000000	0.1195
1399.000000	0.1195
1400.000000	0.1195
1401.000000	0.1195
1402.000000	0.1195
1403.000000	0.1195
1404.000000	0.1195
1405.000000	0.1195
1406.000000	0.1195
1407.000000	0.1195
1408.000000	0.1195
1409.000000	0.1195
1410.000000	0.1195
1411.000000	0.1195
1412.000000	0.1195
1413.000000	0.1152
1414.000000	0.1152
1415.000000	0.1152
1416.000000	0.1152
1417.000000	0.1152
1418.000000	0.1152
1419.000000	0.1152
1420.000000	0.1152
1421.000000	0.1152
1422.000000	0.1152
1423.000000	0.1152
1424.000000	0.1152
1425.000000	0.1152
1426.000000	0.1152
1427.000000	0.1152
1428.000000	0.1152
1429.000000	0.1152
1430.000000	0.1152
1431.000000	0.1152
1432.000000	0.1152
1433.000000	0.1152
1434.000000	0.1152
1435.000000	0.1152
1436.000000	0.1152
1437.000000	0.1152
1438.000000	0.1152
1439.000000	0.1152
1440.000000	0.1152
1441.000000	0.1152
1442.000000	0.1152
1443.000000	0.1152
1444.000000	0.1152
1445.000000	0.1152
1446.000000	0.111
1447.000000	0.111
1448.000000	0.111
1449.000000	0.111
1450.000000	0.111
1451.000000	0.111
1452.000000	0.111
1453.000000	0.111
1454.000000	0.111
1455.000000	0.111
1456.000000	0.111
1457.000000	0.111
1458.000000	0.111
1459.000000	0.111
1460.000000	0.111
1461.000000	0.111
1462.000000	0.111
1463.000000	0.111
1464.000000	0.111
1465.000000	0.111
1466.000000	0.111
1467.000000	0.111
1468.000000	0.111
1469.000000	0.111
1470.000000	0.111
1471.000000	0.111
1472.000000	0.111
1473.000000	0.111
1474.000000	0.111
1475.000000	0.111
1476.000000	0.111
1477.000000	0.111
1478.000000	0.111
1479.000000	0.111
1480.000000	0.107
1481.000000	0.107
1482.000000	0.107
1483.000000	0.107
1484.000000	0.107
1485.000000	0.107
1486.000000	0.107
1487.000000	0.107
1488.000000	0.107
1489.000000	0.107
1490.000000	0.107
1491.000000	0.107
1492.000000	0.107
1493.000000	0.107
1494.000000	0.107
1495.000000	0.107
1496.000000	0.107
1497.000000	0.107
1498.000000	0.107
1499.000000	0.107
1500.000000	0.107
1501.000000	0.107
1502.000000	0.107
1503.000000	0.107
1504.000000	0.107
1505.000000	0.107
1506.000000	0.107
1507.000000	0.107
1508.000000	0.107
1509.000000	0.107
1510.000000	0.107
1511.000000	0.107
1512.000000	0.107
1513.000000	0.107
1514.000000	0.1032
1515.000000	0.1032
1516.000000	0.1032
1517.000000	0.1032
1518.000000	0.1032
1519.000000	0.1032
1520.000000	0.1032
1521.000000	0.1032
1522.000000	0.1032
1523.000000	0.1032
1524.000000	0.1032
1525.000000	0.1032
1526.000000	0.1032
1527.000000	0.1032
1528.000000	0.1032
1529.000000	0.1032
1530.000000	0.1032
1531.000000	0.1032
1532.000000	0.1032
1533.000000	0.1032
1534.000000	0.1032
1535.000000	0.1032
1536.000000	0.1032
1537.000000	0.1032
1538.000000	0.1032
1539.000000	0.1032
1540.000000	0.1032
1541.000000	0.1032
1542.000000	0.1032
1543.000000	0.1032
1544.000000	0.1032
1545.000000	0.1032
1546.000000	0.1032
1547.000000	0.1032
1548.000000	0.1032
1549.000000	0.09946
1550.000000	0.09946
1551.000000	0.09946
1552.000000	0.09946
1553.000000	0.09946
1554.000000	0.09946
1555.000000	0.09946
1556.000000	0.09946
1557.000000	0.09946
1558.000000	0.09946
1559.000000	0.09946
1560.000000	0.09946
1561.000000	0.09946
1562.000000	0.09946
1563.000000	0.09946
1564.000000	0.09946
1565.000000	0.09946
1566.000000	0.09946
1567.000000	0.09946
1568.000000	0.09946
1569.000000	0.09946
1570.000000	0.09946
1571.000000	0.09946
1572.000000	0.09946
1573.000000	0.09946
1574.000000	0.09946
1575.000000	0.09946
1576.000000	0.09946
1577.000000	0.09946
1578.000000	0.09946
1579.000000	0.09946
1580.000000	0.09946
1581.000000	0.09946
1582.000000	0.09946
1583.000000	0.09946
1584.000000	0.09946
1585.000000	0.09584
1586.000000	0.09584
1587.000000	0.09584
1588.000000	0.09584
1589.000000	0.09584
1590.000000	0.09584
1591.000000	0.09584
1592.000000	0.09584
1593.000000	0.09584
1594.000000	0.09584
1595.000000	0.09584
1596.000000	0.09584
1597.000000	0.09584
1598.000000	0.09584
1599.000000	0.09584
1600.000000	0.09584
1601.000000	0.09584
1602.000000	0.09584
1603.000000	0.09584
1604.000000	0.09584
1605.000000	0.09584
1606.000000	0.09584
1607.000000	0.09584
1608.000000	0.09584
1609.000000	0.09584
1610.000000	0.09584
1611.000000	0.09584
1612.000000	0.09584
1613.000000	0.09584
1614.000000	0.09584
1615.000000	0.09584
1616.000000	0.09584
1617.000000	0.09584
1618.000000	0.09584
1619.000000	0.09584
1620.000000	0.09584
1621.000000	0.09584
1622.000000	0.09234
1623.000000	0.09234
1624.000000	0.09234
1625.000000	0.09234
1626.000000	0.09234
1627.000000	0.09234
1628.000000	0.09234
1629.000000	0.09234
1630.000000	0.09234
1631.000000	0.09159
1632.000000	0.09159
1633.000000	0.09159
1634.000000	0.09159
1635.000000	0.09159
1636.000000	0.09159
1637.000000	0.09159
1638.000000	0.09159
1639.000000	0.09159
1640.000000	0.09159
1641.000000	0.09159
1642.000000	0.09159
1643.000000	0.09159
1644.000000	0.09159
1645.000000	0.09159
1646.000000	0.09159
1647.000000	0.09159
1648.000000	0.09159
1649.000000	0.09159
1650.000000	0.09159
1651.000000	0.09159
1652.000000	0.09159
1653.000000	0.09159
1654.000000	0.09159
1655.000000	0.09159
1656.000000	0.09159
1657.000000	0.09159
1658.000000	0.09159
1659.000000	0.09159
1660.000000	0.08894
1661.000000	0.08894
1662.000000	0.08894
1663.000000	0.08894
1664.000000	0.08894
1665.000000	0.08894
1666.000000	0.08894
1667.000000	0.08894
1668.000000	0.08894
1669.000000	0.08894
1670.000000	0.08894
1671.000000	0.08894
1672.000000	0.08894
1673.000000	0.08894
1674.000000	0.08894
1675.000000	0.08894
1676.000000	0.08894
1677.000000	0.08894
1678.000000	0.08894
1679.000000	0.08894
1680.000000	0.08894
1681.000000	0.08894
1682.000000	0.08894
1683.000000	0.08894
1684.000000	0.08894
1685.000000	0.08894
1686.000000	0.08894
1687.000000	0.08894
1688.000000	0.08894
1689.000000	0.08894
1690.000000	0.08894
1691.000000	0.08894
1692.000000	0.08894
1693.000000	0.08894
1694.000000	0.08894
1695.000000	0.08894
1696.000000	0.08894
1697.000000	0.08894
1698.000000	0.08894
1699.000000	0.08565
1700.000000	0.08565
1702.000000	0.08565
1705.000000	0.08565
1710.000000	0.08565
1715.000000	0.08565
1720.000000	0.08565
1725.000000	0.08565
1730.000000	0.08565
1735.000000	0.08565
1740.000000	0.08247
1745.000000	0.08247
1750.000000	0.08247
1755.000000	0.08247
1760.000000	0.08247
1765.000000	0.08247
1770.000000	0.08247
1775.000000	0.08247
1780.000000	0.07939
1785.000000	0.07939
1790.000000	0.07939
1795.000000	0.07939
1800.000000	0.07939
1805.000000	0.07939
1810.000000	0.07939
1815.000000	0.07939
1820.000000	0.0764
1825.000000	0.0764
1830.000000	0.0764
1835.000000	0.0764
1840.000000	0.0764
1845.000000	0.0764
1850.000000	0.0764
1855.000000	0.0764
1860.000000	0.0764
1865.000000	0.07351
1870.000000	0.07351
1875.000000	0.07351
1880.000000	0.07267
1885.000000	0.07267
1890.000000	0.07267
1895.000000	0.07267
1900.000000	0.07267
1905.000000	0.07267
1910.000000	0.07072
1915.000000	0.07072
1920.000000	0.07072
1925.000000	0.07072
1930.000000	0.07072
1935.000000	0.07072
1940.000000	0.07072
1945.000000	0.07072
1950.000000	0.06802
1955.000000	0.06802
1960.000000	0.06802
1965.000000	0.06802
1970.000000	0.06802
1975.000000	0.06802
1980.000000	0.06802
1985.000000	0.06802
1990.000000	0.06802
1995.000000	0.06802
2000.000000	0.0654
2005.000000	0.0654
2010.000000	0.0654
2015.000000	0.0654
2020.000000	0.0654
2025.000000	0.0654
2030.000000	0.0654
2035.000000	0.0654
2040.000000	0.0654
2045.000000	0.06287
2050.000000	0.06287
2055.000000	0.06287
2060.000000	0.06287
2065.000000	0.06287
2070.000000	0.06287
2075.000000	0.06287
2080.000000	0.06287
2085.000000	0.06287
2090.000000	0.06042
2095.000000	0.06042
2100.000000	0.06042
2105.000000	0.06042
2110.000000	0.06042
2115.000000	0.06042
2120.000000	0.06042
2125.000000	0.05883
2130.000000	0.05883
2135.000000	0.05883
2140.000000	0.05805
2145.000000	0.05805
2150.000000	0.05805
2155.000000	0.05805
2160.000000	0.05805
2165.000000	0.05805
2170.000000	0.05676
2175.000000	0.05676
2180.000000	0.05676
2185.000000	0.05676
2190.000000	0.05576
2195.000000	0.05566
2200.000000	0.05566
2205.000000	0.05566
2210.000000	0.05566
2215.000000	0.05566
2220.000000	0.05566
2225.000000	0.05566
2230.000000	0.05566
2235.000000	0.05566
2240.000000	0.05353
2245.000000	0.05353
2250.000000	0.05353
2255.000000	0.05353
2260.000000	0.05353
2265.000000	0.05353
2270.000000	0.05353
2275.000000	0.05353
2280.000000	0.05353
2285.000000	0.05353
2290.000000	0.05353
2295.000000	0.05139
2300.000000	0.05139
2305.000000	0.05139
2310.000000	0.05139
2315.000000	0.05139
2320.000000	0.05139
2325.000000	0.05139
2330.000000	0.05139
2335.000000	0.05139
2340.000000	0.05139
2345.000000	0.04932
2350.000000	0.04932
2355.000000	0.04932
2360.000000	0.04932
2365.000000	0.04932
2370.000000	0.04932
2375.000000	0.04932
2380.000000	0.04932
2385.000000	0.04932
2390.000000	0.04932
2395.000000	0.04932
2400.000000	0.04732
2405.000000	0.04732
2410.000000	0.04732
2415.000000	0.04732
2420.000000	0.04732
2425.000000	0.04732
2430.000000	0.04732
2435.000000	0.04732
2440.000000	0.04732
2445.000000	0.04732
2450.000000	0.04732
2455.000000	0.04538
2460.000000	0.04538
2465.000000	0.04538
2470.000000	0.04538
2475.000000	0.04538
2480.000000	0.04538
2485.000000	0.04538
2490.000000	0.04538
2495.000000	0.04538
2500.000000	0.04538
2505.000000	0.04538
2510.000000	0.04538
2515.000000	0.04352
2520.000000	0.04352
2525.000000	0.04352
2530.000000	0.04352
2535.000000	0.04352
2540.000000	0.04352
2545.000000	0.04352
2550.000000	0.04352
2555.000000	0.04352
2560.000000	0.04352
2565.000000	0.04352
2570.000000	0.04352
2575.000000	0.04171
2580.000000	0.04171
2585.000000	0.04171
2590.000000	0.04171
2595.000000	0.04171
2600.000000	0.04171
2605.000000	0.04171
2610.000000	0.04171
2615.000000	0.04171
2620.000000	0.04171
2625.000000	0.04171
2630.000000	0.04012
2635.000000	0.03997
2640.000000	0.03997
2645.000000	0.03997
2650.000000	0.03997
2655.000000	0.03997
2660.000000	0.03997
2665.000000	0.03997
2670.000000	0.03997
2675.000000	0.03997
2680.000000	0.03997
2685.000000	0.03997
2690.000000	0.03997
2695.000000	0.0383
2700.000000	0.0383
2705.000000	0.0383
2710.000000	0.0383
2715.000000	0.0383
2720.000000	0.0383
2725.000000	0.0383
2730.000000	0.0383
2735.000000	0.0383
2740.000000	0.0383
2745.000000	0.0383
2750.000000	0.0383
2755.000000	0.03668
2760.000000	0.03668
2765.000000	0.03668
2770.000000	0.03668
2775.000000	0.03668
2780.000000	0.03668
2785.000000	0.03668
2790.000000	0.03668
2795.000000	0.03668
2800.000000	0.03668
2805.000000	0.03668
2810.000000	0.03668
2815.000000	0.03668
2820.000000	0.03513
2825.000000	0.03513
2830.000000	0.03513
2835.000000	0.03513
2840.000000	0.03513
2845.000000	0.03513
2850.000000	0.03513
2855.000000	0.03513
2860.000000	0.03513
2865.000000	0.03513
2870.000000	0.03513
2875.000000	0.03513
2880.000000	0.03513
2885.000000	0.03363
2890.000000	0.03363
2895.000000	0.03363
2900.000000	0.03363
2905.000000	0.03363
2910.000000	0.03363
2915.000000	0.03363
2920.000000	0.03363
2925.000000	0.03363
2930.000000	0.03363
2935.000000	0.03363
2940.000000	0.03363
2945.000000	0.03363
2950.000000	0.03363
2955.000000	0.03219
2960.000000	0.03219
2965.000000	0.03219
2970.000000	0.03219
2975.000000	0.03219
2980.000000	0.03219
2985.000000	0.03219
2990.000000	0.03219
2995.000000	0.03219
3000.000000	0.03219
3005.000000	0.03219
3010.000000	0.03219
3015.000000	0.03219
3020.000000	0.0308
3025.000000	0.0308
3030.000000	0.0308
3035.000000	0.0308
3040.000000	0.0308
3045.000000	0.0308
3050.000000	0.0308
3055.000000	0.0308
3060.000000	0.0308
3065.000000	0.0308
3070.000000	0.0308
3075.000000	0.0308
3080.000000	0.0308
3085.000000	0.0308
3090.000000	0.0308
3095.000000	0.02947
3100.000000	0.02947
3105.000000	0.02947
3110.000000	0.02947
3115.000000	0.02947
3120.000000	0.02947
3125.000000	0.02947
3130.000000	0.02947
3135.000000	0.02947
3140.000000	0.02947
3145.000000	0.02947
3150.000000	0.02947
3155.000000	0.02947
3160.000000	0.02947
3165.000000	0.02821
3170.000000	0.02821
3175.000000	0.02821
3180.000000	0.02821
3185.000000	0.02821
3190.000000	0.02821
3195.000000	0.02821
3200.000000	0.02821
3205.000000	0.02821
3210.000000	0.02821
3215.000000	0.02821
3220.000000	0.02821
3225.000000	0.02821
3230.000000	0.02821
3235.000000	0.02821
3240.000000	0.02701
3245.000000	0.02701
3250.000000	0.02701
3255.000000	0.02701
3260.000000	0.02701
3265.000000	0.02701
3270.000000	0.02701
3275.000000	0.02701
3280.000000	0.02701
3285.000000	0.02701
3290.000000	0.02701
3295.000000	0.02701
3300.000000	0.02701
3305.000000	0.02701
3310.000000	0.02701
3315.000000	0.02606
3320.000000	0.02606
3325.000000	0.02606
3330.000000	0.02606
3335.000000	0.02606
3340.000000	0.02606
3345.000000	0.02606
3350.000000	0.02606
3355.000000	0.02606
3360.000000	0.02606
3365.000000	0.02606
3370.000000	0.02606
3375.000000	0.02606
3380.000000	0.02606
3385.000000	0.02606
3390.000000	0.0247
3395.000000	0.0247
3400.000000	0.0247
3405.000000	0.0247
3410.000000	0.0247
3415.000000	0.0247
3420.000000	0.0247
3425.000000	0.0247
3430.000000	0.0247
3435.000000	0.0247
3440.000000	0.0247
3445.000000	0.0247
3450.000000	0.0247
3455.000000	0.02384
3460.000000	0.02384
3465.000000	0.02384
3470.000000	0.02361
3475.000000	0.02361
3480.000000	0.02361
3485.000000	0.02361
3490.000000	0.02361
3495.000000	0.02361
3500.000000	0.02361
3505.000000	0.02361
3510.000000	0.02361
3515.000000	0.02361
3520.000000	0.02361
3525.000000	0.02361
3530.000000	0.02361
3535.000000	0.02361
3540.000000	0.02361
3545.000000	0.02361
3550.000000	0.02257
3555.000000	0.02257
3560.000000	0.02257
3565.000000	0.02257
3570.000000	0.02257
3575.000000	0.02257
3580.000000	0.02257
3585.000000	0.02257
3590.000000	0.02257
3595.000000	0.02257
3600.000000	0.02257
3605.000000	0.02257
3610.000000	0.02257
3615.000000	0.02257
3620.000000	0.02257
3625.000000	0.02257
3630.000000	0.02257
3635.000000	0.02158
3640.000000	0.02158
3645.000000	0.02158
3650.000000	0.02158
3655.000000	0.02158
3660.000000	0.02158
3665.000000	0.02158
3670.000000	0.02158
3675.000000	0.02158
3680.000000	0.02158
3685.000000	0.02158
3690.000000	0.02158
3695.000000	0.02158
3700.000000	0.02158
3705.000000	0.02158
3710.000000	0.02158
3715.000000	0.02158
3720.000000	0.02063
3725.000000	0.02063
3730.000000	0.02063
3735.000000	0.02063
3740.000000	0.02063
3745.000000	0.02063
3750.000000	0.02063
3755.000000	0.02063
3760.000000	0.02063
3765.000000	0.02063
3770.000000	0.02063
3775.000000	0.02063
3780.000000	0.02063
3785.000000	0.02063
3790.000000	0.02063
3795.000000	0.02063
3800.000000	0.02063
3805.000000	0.01973
3810.000000	0.01973
3815.000000	0.01973
3820.000000	0.01973
3825.000000	0.01973
3830.000000	0.01973
3835.000000	0.01973
3840.000000	0.01973
3845.000000	0.01973
3850.000000	0.01973
3855.000000	0.01973
3860.000000	0.01973
3865.000000	0.01973
3870.000000	0.01973
3875.000000	0.01973
3880.000000	0.01973
3885.000000	0.01973
3890.000000	0.01973
3895.000000	0.01886
3900.000000	0.01886
3905.000000	0.01886
3910.000000	0.01886
3915.000000	0.01886
3920.000000	0.01886
3925.000000	0.01886
3930.000000	0.01886
3935.000000	0.01886
3940.000000	0.01886
3945.000000	0.01886
3950.000000	0.01886
3955.000000	0.01886
3960.000000	0.01886
3965.000000	0.01886
3970.000000	0.01886
3975.000000	0.01886
3980.000000	0.01886
3985.000000	0.01804
3990.000000	0.01804
3995.000000	0.01804
4000.000000	0.01804
