# Wavelength	Spectral Flux Density
# (nm)		(W/m^2/nm)
280.000000	0.0
280.500000	0.0
281.000000	0.0
281.500000	0.0
282.000000	0.0
282.500000	0.0
283.000000	0.0
283.500000	0.0
284.000000	0.0
284.500000	0.0
285.000000	3.1341e-17
285.500000	2.5547e-16
286.000000	9.4865e-16
286.500000	7.4169e-15
287.000000	2.9107e-14
287.500000	1.4693e-13
288.000000	1.1259e-12
288.500000	3.7083e-12
289.000000	1.4309e-11
289.500000	6.2866e-11
290.000000	2.1048e-10
290.500000	5.4419e-10
291.000000	1.594e-09
291.500000	5.9009e-09
292.000000	1.6686e-08
292.500000	2.8804e-08
293.000000	6.447e-08
293.500000	1.9265e-07
294.000000	3.8681e-07
294.500000	6.5308e-07
295.000000	1.3191e-06
295.500000	3.338e-06
296.000000	6.1332e-06
296.500000	9.702e-06
297.000000	1.3812e-05
297.500000	2.8264e-05
298.000000	4.6308e-05
298.500000	5.9389e-05
299.000000	8.458e-05
299.500000	0.00015559
300.000000	0.00018991
300.500000	0.00023808
301.000000	0.00038258
301.500000	0.0005494
302.000000	0.000616
302.500000	0.00092632
303.000000	0.0015783
303.500000	0.0020312
304.000000	0.0021551
304.500000	0.0027344
305.000000	0.003777
305.500000	0.0043065
306.000000	0.0042913
306.500000	0.0048908
307.000000	0.0064458
307.500000	0.0082308
308.000000	0.0087741
308.500000	0.0096184
309.000000	0.0094273
309.500000	0.010189
310.000000	0.011977
310.500000	0.015443
311.000000	0.019537
311.500000	0.019866
312.000000	0.021907
312.500000	0.023141
313.000000	0.025103
313.500000	0.025394
314.000000	0.028091
314.500000	0.030333
315.000000	0.031715
315.500000	0.027905
316.000000	0.028875
316.500000	0.03554
317.000000	0.040755
317.500000	0.043687
318.000000	0.041979
318.500000	0.043835
319.000000	0.048067
319.500000	0.046849
320.000000	0.049408
320.500000	0.058293
321.000000	0.05877
321.500000	0.056155
322.000000	0.053451
322.500000	0.052444
323.000000	0.050924
323.500000	0.058678
324.000000	0.066219
324.500000	0.068961
325.000000	0.069126
325.500000	0.07997
326.000000	0.093042
326.500000	0.098812
327.000000	0.097349
327.500000	0.094902
328.000000	0.08816
328.500000	0.092182
329.000000	0.10387
329.500000	0.11532
330.000000	0.11678
330.500000	0.10747
331.000000	0.10181
331.500000	0.1072
332.000000	0.11116
332.500000	0.11183
333.000000	0.11005
333.500000	0.10552
334.000000	0.10805
334.500000	0.11536
335.000000	0.12009
335.500000	0.11745
336.000000	0.10801
336.500000	0.10023
337.000000	0.098728
337.500000	0.10629
338.000000	0.11485
338.500000	0.12042
339.000000	0.12499
339.500000	0.12845
340.000000	0.13681
340.500000	0.13688
341.000000	0.12884
341.500000	0.12848
342.000000	0.13433
342.500000	0.13975
343.000000	0.14234
343.500000	0.1349
344.000000	0.11694
344.500000	0.11273
345.000000	0.12848
345.500000	0.13728
346.000000	0.13438
346.500000	0.13722
347.000000	0.1422
347.500000	0.13766
348.000000	0.13745
348.500000	0.14016
349.000000	0.13538
349.500000	0.1394
350.000000	0.15437
350.500000	0.16749
351.000000	0.16339
351.500000	0.15766
352.000000	0.15428
352.500000	0.14616
353.000000	0.15571
353.500000	0.17165
354.000000	0.1819
354.500000	0.18436
355.000000	0.18663
355.500000	0.18068
356.000000	0.16994
356.500000	0.15977
357.000000	0.14084
357.500000	0.14286
358.000000	0.13326
358.500000	0.12401
359.000000	0.1462
359.500000	0.17655
360.000000	0.18718
360.500000	0.17729
361.000000	0.16351
361.500000	0.1605
362.000000	0.16862
362.500000	0.1851
363.000000	0.19082
363.500000	0.18901
364.000000	0.19633
364.500000	0.19491
365.000000	0.20282
365.500000	0.22368
366.000000	0.24017
366.500000	0.24107
367.000000	0.23707
367.500000	0.23305
368.000000	0.21985
368.500000	0.21881
369.000000	0.22919
369.500000	0.24671
370.000000	0.25064
370.500000	0.22702
371.000000	0.23105
371.500000	0.24055
372.000000	0.22912
372.500000	0.21869
373.000000	0.21103
373.500000	0.19058
374.000000	0.19042
374.500000	0.18936
375.000000	0.20243
375.500000	0.22424
376.000000	0.23263
376.500000	0.22928
377.000000	0.24641
377.500000	0.27536
378.000000	0.29715
378.500000	0.29015
379.000000	0.25923
379.500000	0.23281
380.000000	0.24511
380.500000	0.26734
381.000000	0.27249
381.500000	0.24601
382.000000	0.21008
382.500000	0.18205
383.000000	0.16346
383.500000	0.15851
384.000000	0.18369
384.500000	0.2215
385.000000	0.24352
385.500000	0.23306
386.000000	0.22523
386.500000	0.23456
387.000000	0.23704
387.500000	0.23397
388.000000	0.23207
388.500000	0.23079
389.000000	0.25095
389.500000	0.28304
390.000000	0.29738
390.500000	0.30034
391.000000	0.31863
391.500000	0.32363
392.000000	0.2984
392.500000	0.24908
393.000000	0.18061
393.500000	0.14383
394.000000	0.18711
394.500000	0.25849
395.000000	0.30572
395.500000	0.3261
396.000000	0.28714
396.500000	0.20909
397.000000	0.16219
397.500000	0.23987
398.000000	0.3253
398.500000	0.39088
399.000000	0.41562
399.500000	0.42892
400.000000	0.43413
401.000000	0.45327
402.000000	0.47237
403.000000	0.45596
404.000000	0.46442
405.000000	0.45408
406.000000	0.4439
407.000000	0.43701
408.000000	0.46469
409.000000	0.4974
410.000000	0.4249
411.000000	0.47879
412.000000	0.50999
413.000000	0.49029
414.000000	0.48598
415.000000	0.5041
416.000000	0.52024
417.000000	0.51423
418.000000	0.49289
419.000000	0.51403
420.000000	0.47196
421.000000	0.53706
422.000000	0.53081
423.000000	0.51498
424.000000	0.51311
425.000000	0.52981
426.000000	0.5157
427.000000	0.507
428.000000	0.51282
429.000000	0.47565
430.000000	0.38009
431.000000	0.34565
432.000000	0.57599
433.000000	0.5368
434.000000	0.49671
435.000000	0.54574
436.000000	0.59945
437.000000	0.62234
438.000000	0.54697
439.000000	0.52707
440.000000	0.60511
441.000000	0.60144
442.000000	0.64469
443.000000	0.65483
444.000000	0.63899
445.000000	0.66419
446.000000	0.59629
447.000000	0.68521
448.000000	0.69443
449.000000	0.69371
450.000000	0.72009
451.000000	0.74777
452.000000	0.7168
453.000000	0.66268
454.000000	0.71165
455.000000	0.70746
456.000000	0.73167
457.000000	0.73865
458.000000	0.73501
459.000000	0.73007
460.000000	0.72621
461.000000	0.75256
462.000000	0.76034
463.000000	0.76374
464.000000	0.7412
465.000000	0.73269
466.000000	0.74887
467.000000	0.71628
468.000000	0.75971
469.000000	0.76454
470.000000	0.73579
471.000000	0.75043
472.000000	0.7901
473.000000	0.7602
474.000000	0.76945
475.000000	0.79554
476.000000	0.76916
477.000000	0.77454
478.000000	0.8004
479.000000	0.7953
480.000000	0.80929
481.000000	0.80994
482.000000	0.81362
483.000000	0.80443
484.000000	0.7898
485.000000	0.78775
486.000000	0.63912
487.000000	0.72351
488.000000	0.78365
489.000000	0.73871
490.000000	0.83011
491.000000	0.79843
492.000000	0.76176
493.000000	0.81531
494.000000	0.79647
495.000000	0.84615
496.000000	0.80515
497.000000	0.81941
498.000000	0.7976
499.000000	0.79807
500.000000	0.79582
501.000000	0.77199
502.000000	0.78365
503.000000	0.82021
504.000000	0.76501
505.000000	0.82027
506.000000	0.85375
507.000000	0.81725
508.000000	0.79686
509.000000	0.83547
510.000000	0.81417
511.000000	0.82962
512.000000	0.85206
513.000000	0.81272
514.000000	0.79595
515.000000	0.81933
516.000000	0.82723
517.000000	0.67438
518.000000	0.77158
519.000000	0.74814
520.000000	0.81713
521.000000	0.82343
522.000000	0.84228
523.000000	0.79429
524.000000	0.85465
525.000000	0.8607
526.000000	0.8371
527.000000	0.73252
528.000000	0.8389
529.000000	0.87828
530.000000	0.84449
531.000000	0.89107
532.000000	0.87529
533.000000	0.78189
534.000000	0.83785
535.000000	0.85089
536.000000	0.88759
537.000000	0.82157
538.000000	0.87533
539.000000	0.85403
540.000000	0.82493
541.000000	0.79337
542.000000	0.86386
543.000000	0.84994
544.000000	0.88005
545.000000	0.86027
546.000000	0.85265
547.000000	0.86405
548.000000	0.84922
549.000000	0.87604
550.000000	0.87182
551.000000	0.87125
552.000000	0.88939
553.000000	0.86448
554.000000	0.88166
555.000000	0.88684
556.000000	0.87717
557.000000	0.85597
558.000000	0.87473
559.000000	0.82795
560.000000	0.84292
561.000000	0.89221
562.000000	0.8498
563.000000	0.88925
564.000000	0.87208
565.000000	0.87785
566.000000	0.83044
567.000000	0.88549
568.000000	0.87778
569.000000	0.85667
570.000000	0.85745
571.000000	0.8296
572.000000	0.87649
573.000000	0.88044
574.000000	0.87604
575.000000	0.85648
576.000000	0.86097
577.000000	0.88289
578.000000	0.85585
579.000000	0.86832
580.000000	0.88309
581.000000	0.88722
582.000000	0.90107
583.000000	0.91046
584.000000	0.90868
585.000000	0.9016
586.000000	0.88007
587.000000	0.89969
588.000000	0.87967
589.000000	0.77024
590.000000	0.81905
591.000000	0.87591
592.000000	0.85789
593.000000	0.87026
594.000000	0.86647
595.000000	0.85589
596.000000	0.88183
597.000000	0.88469
598.000000	0.87398
599.000000	0.87418
600.000000	0.88302
601.000000	0.87272
602.000000	0.85975
603.000000	0.88948
604.000000	0.90525
605.000000	0.90383
606.000000	0.89945
607.000000	0.90491
608.000000	0.90208
609.000000	0.89534
610.000000	0.89164
611.000000	0.88713
612.000000	0.9006
613.000000	0.88794
614.000000	0.86106
615.000000	0.89279
616.000000	0.86934
617.000000	0.86925
618.000000	0.90227
619.000000	0.90663
620.000000	0.90711
621.000000	0.9112
622.000000	0.87866
623.000000	0.87259
624.000000	0.86973
625.000000	0.864
626.000000	0.86318
627.000000	0.88821
628.000000	0.84088
629.000000	0.87021
630.000000	0.85868
631.000000	0.88376
632.000000	0.85117
633.000000	0.90524
634.000000	0.89122
635.000000	0.90213
636.000000	0.88162
637.000000	0.91173
638.000000	0.9178
639.000000	0.91408
640.000000	0.89502
641.000000	0.89557
642.000000	0.9051
643.000000	0.9145
644.000000	0.9106
645.000000	0.91729
646.000000	0.89427
647.000000	0.89057
648.000000	0.88225
649.000000	0.85493
650.000000	0.86193
651.000000	0.91603
652.000000	0.88008
653.000000	0.90755
654.000000	0.89753
655.000000	0.85639
656.000000	0.75176
657.000000	0.79045
658.000000	0.8836
659.000000	0.88685
660.000000	0.89262
661.000000	0.89213
662.000000	0.88506
663.000000	0.88655
664.000000	0.89419
665.000000	0.91002
666.000000	0.90925
667.000000	0.90267
668.000000	0.90571
669.000000	0.92141
670.000000	0.90875
671.000000	0.90705
672.000000	0.89447
673.000000	0.90217
674.000000	0.9009
675.000000	0.89362
676.000000	0.90401
677.000000	0.90603
678.000000	0.91089
679.000000	0.90317
680.000000	0.90467
681.000000	0.90117
682.000000	0.90553
683.000000	0.8958
684.000000	0.89001
685.000000	0.89065
686.000000	0.87063
687.000000	0.63137
688.000000	0.7291
689.000000	0.73375
690.000000	0.76851
691.000000	0.80104
692.000000	0.83273
693.000000	0.82766
694.000000	0.81841
695.000000	0.83432
696.000000	0.83251
697.000000	0.87864
698.000000	0.8649
699.000000	0.84755
700.000000	0.8414
701.000000	0.83077
702.000000	0.83157
703.000000	0.83641
704.000000	0.85789
705.000000	0.86693
706.000000	0.8623
707.000000	0.85868
708.000000	0.86536
709.000000	0.86835
710.000000	0.87376
711.000000	0.8723
712.000000	0.8666
713.000000	0.85659
714.000000	0.86419
715.000000	0.83531
716.000000	0.84409
717.000000	0.73686
718.000000	0.68615
719.000000	0.61599
720.000000	0.6574
721.000000	0.72339
722.000000	0.82457
723.000000	0.76186
724.000000	0.70393
725.000000	0.69981
726.000000	0.72859
727.000000	0.73118
728.000000	0.70148
729.000000	0.70544
730.000000	0.76037
731.000000	0.72168
732.000000	0.77706
733.000000	0.8052
734.000000	0.8318
735.000000	0.81998
736.000000	0.81207
737.000000	0.81089
738.000000	0.82611
739.000000	0.80181
740.000000	0.82131
741.000000	0.81828
742.000000	0.82714
743.000000	0.84445
744.000000	0.85131
745.000000	0.85101
746.000000	0.8493
747.000000	0.8499
748.000000	0.84497
749.000000	0.84547
750.000000	0.8445
751.000000	0.84083
752.000000	0.8439
753.000000	0.83978
754.000000	0.85049
755.000000	0.8481
756.000000	0.83791
757.000000	0.83723
758.000000	0.84248
759.000000	0.82395
760.000000	0.18629
761.000000	0.10799
762.000000	0.47853
763.000000	0.26543
764.000000	0.37598
765.000000	0.47767
766.000000	0.56588
767.000000	0.67512
768.000000	0.77043
769.000000	0.77986
770.000000	0.80239
771.000000	0.80767
772.000000	0.81415
773.000000	0.81377
774.000000	0.814
775.000000	0.81407
776.000000	0.81603
777.000000	0.81909
778.000000	0.81833
779.000000	0.82206
780.000000	0.81323
781.000000	0.81133
782.000000	0.81529
783.000000	0.81209
784.000000	0.80677
785.000000	0.81034
786.000000	0.81088
787.000000	0.80129
788.000000	0.79132
789.000000	0.78828
790.000000	0.76438
791.000000	0.77458
792.000000	0.76735
793.000000	0.7621
794.000000	0.76864
795.000000	0.77321
796.000000	0.76034
797.000000	0.77252
798.000000	0.78696
799.000000	0.77183
800.000000	0.75937
801.000000	0.76797
802.000000	0.76898
803.000000	0.75785
804.000000	0.76682
805.000000	0.75
806.000000	0.78045
807.000000	0.77243
808.000000	0.76984
809.000000	0.75064
810.000000	0.75168
811.000000	0.75002
812.000000	0.73158
813.000000	0.72274
814.000000	0.64867
815.000000	0.64283
816.000000	0.59821
817.000000	0.61226
818.000000	0.59145
819.000000	0.64994
820.000000	0.61936
821.000000	0.71542
822.000000	0.68278
823.000000	0.48507
824.000000	0.67145
825.000000	0.69574
826.000000	0.67076
827.000000	0.70679
828.000000	0.61138
829.000000	0.6677
830.000000	0.65836
831.000000	0.66406
832.000000	0.6488
833.000000	0.69308
834.000000	0.67733
835.000000	0.72667
836.000000	0.70491
837.000000	0.73117
838.000000	0.72407
839.000000	0.72562
840.000000	0.73611
841.000000	0.73221
842.000000	0.72271
843.000000	0.72865
844.000000	0.71507
845.000000	0.7369
846.000000	0.73863
847.000000	0.71908
848.000000	0.71957
849.000000	0.71517
850.000000	0.64833
851.000000	0.7074
852.000000	0.70945
853.000000	0.70628
854.000000	0.62314
855.000000	0.66847
856.000000	0.71261
857.000000	0.72615
858.000000	0.72643
859.000000	0.72632
860.000000	0.72382
861.000000	0.72291
862.000000	0.72858
863.000000	0.73305
864.000000	0.71745
865.000000	0.70586
866.000000	0.62601
867.000000	0.67508
868.000000	0.70741
869.000000	0.70037
870.000000	0.71371
871.000000	0.70531
872.000000	0.71498
873.000000	0.70792
874.000000	0.69561
875.000000	0.68569
876.000000	0.70495
877.000000	0.70752
878.000000	0.7048
879.000000	0.69317
880.000000	0.69547
881.000000	0.67264
882.000000	0.69033
883.000000	0.688
884.000000	0.6909
885.000000	0.69928
886.000000	0.67225
887.000000	0.67451
888.000000	0.68326
889.000000	0.69235
890.000000	0.68469
891.000000	0.6861
892.000000	0.67905
893.000000	0.65278
894.000000	0.63722
895.000000	0.60948
896.000000	0.57184
897.000000	0.49999
898.000000	0.53872
899.000000	0.41293
900.000000	0.55711
901.000000	0.45065
902.000000	0.50151
903.000000	0.51742
904.000000	0.6328
905.000000	0.61254
906.000000	0.58177
907.000000	0.48011
908.000000	0.4902
909.000000	0.52889
910.000000	0.46984
911.000000	0.50215
912.000000	0.51762
913.000000	0.47608
914.000000	0.47474
915.000000	0.51361
916.000000	0.43723
917.000000	0.55241
918.000000	0.44946
919.000000	0.55896
920.000000	0.56297
921.000000	0.59002
922.000000	0.53005
923.000000	0.5633
924.000000	0.54611
925.000000	0.53843
926.000000	0.5324
927.000000	0.59552
928.000000	0.44744
929.000000	0.41858
930.000000	0.32877
931.000000	0.31148
932.000000	0.22942
933.000000	0.1896
934.000000	0.11079
935.000000	0.19293
936.000000	0.12434
937.000000	0.12585
938.000000	0.15443
939.000000	0.30614
940.000000	0.36169
941.000000	0.28562
942.000000	0.31104
943.000000	0.2141
944.000000	0.21978
945.000000	0.28283
946.000000	0.14992
947.000000	0.28512
948.000000	0.21102
949.000000	0.37881
950.000000	0.11356
951.000000	0.37107
952.000000	0.20701
953.000000	0.26421
954.000000	0.32566
955.000000	0.26421
956.000000	0.2543
957.000000	0.20996
958.000000	0.3565
959.000000	0.28956
960.000000	0.32559
961.000000	0.35673
962.000000	0.34182
963.000000	0.3904
964.000000	0.35477
965.000000	0.38945
966.000000	0.38869
967.000000	0.3885
968.000000	0.50293
969.000000	0.52901
970.000000	0.4897
971.000000	0.55017
972.000000	0.53023
973.000000	0.46831
974.000000	0.44443
975.000000	0.45563
976.000000	0.44198
977.000000	0.49295
978.000000	0.47848
979.000000	0.49619
980.000000	0.47053
981.000000	0.55413
982.000000	0.53797
983.000000	0.51989
984.000000	0.57257
985.000000	0.53492
986.000000	0.58301
987.000000	0.57422
988.000000	0.57066
989.000000	0.58167
990.000000	0.56888
991.000000	0.58532
992.000000	0.58337
993.000000	0.57286
994.000000	0.5858
995.000000	0.584
996.000000	0.58182
997.000000	0.57476
998.000000	0.57415
999.000000	0.57394
1000.000000	0.57149
1001.000000	0.58261
1002.000000	0.57
1003.000000	0.5749
1004.000000	0.56633
1005.000000	0.53374
1006.000000	0.55793
1007.000000	0.56971
1008.000000	0.56925
1009.000000	0.56371
1010.000000	0.56332
1011.000000	0.56614
1012.000000	0.56309
1013.000000	0.56217
1014.000000	0.5646
1015.000000	0.55484
1016.000000	0.55734
1017.000000	0.55119
1018.000000	0.55973
1019.000000	0.5399
1020.000000	0.54788
1021.000000	0.55011
1022.000000	0.54073
1023.000000	0.54497
1024.000000	0.54519
1025.000000	0.55063
1026.000000	0.54978
1027.000000	0.54721
1028.000000	0.54788
1029.000000	0.54192
1030.000000	0.54532
1031.000000	0.54286
1032.000000	0.5433
1033.000000	0.53408
1034.000000	0.53731
1035.000000	0.53908
1036.000000	0.53887
1037.000000	0.53335
1038.000000	0.53081
1039.000000	0.53451
1040.000000	0.53086
1041.000000	0.53096
1042.000000	0.53119
1043.000000	0.52589
1044.000000	0.52835
1045.000000	0.52538
1046.000000	0.51169
1047.000000	0.51948
1048.000000	0.52748
1049.000000	0.52451
1050.000000	0.5211
1051.000000	0.52161
1052.000000	0.51845
1053.000000	0.51689
1054.000000	0.51474
1055.000000	0.51638
1056.000000	0.5148
1057.000000	0.51358
1058.000000	0.50832
1059.000000	0.49286
1060.000000	0.50652
1061.000000	0.4949
1062.000000	0.50407
1063.000000	0.49592
1064.000000	0.50356
1065.000000	0.50136
1066.000000	0.49183
1067.000000	0.49442
1068.000000	0.49377
1069.000000	0.46736
1070.000000	0.48211
1071.000000	0.49161
1072.000000	0.49372
1073.000000	0.48432
1074.000000	0.49869
1075.000000	0.47556
1076.000000	0.49327
1077.000000	0.48507
1078.000000	0.48423
1079.000000	0.48537
1080.000000	0.47951
1081.000000	0.46639
1082.000000	0.47318
1083.000000	0.48022
1084.000000	0.46471
1085.000000	0.47649
1086.000000	0.44538
1087.000000	0.45546
1088.000000	0.47645
1089.000000	0.4654
1090.000000	0.44673
1091.000000	0.47274
1092.000000	0.46703
1093.000000	0.41077
1094.000000	0.4337
1095.000000	0.4188
1096.000000	0.40495
1097.000000	0.46776
1098.000000	0.40719
1099.000000	0.41105
1100.000000	0.39357
1101.000000	0.40258
1102.000000	0.37992
1103.000000	0.37802
1104.000000	0.37905
1105.000000	0.41023
1106.000000	0.32296
1107.000000	0.39146
1108.000000	0.33727
1109.000000	0.33499
1110.000000	0.38831
1111.000000	0.26946
1112.000000	0.33568
1113.000000	0.21849
1114.000000	0.24389
1115.000000	0.20341
1116.000000	0.16407
1117.000000	0.065005
1118.000000	0.17721
1119.000000	0.092356
1120.000000	0.11575
1121.000000	0.15152
1122.000000	0.066708
1123.000000	0.10519
1124.000000	0.089246
1125.000000	0.11841
1126.000000	0.042399
1127.000000	0.12903
1128.000000	0.0815
1129.000000	0.08698
1130.000000	0.057999
1131.000000	0.24207
1132.000000	0.19193
1133.000000	0.12585
1134.000000	0.034325
1135.000000	0.01272
1136.000000	0.10575
1137.000000	0.23581
1138.000000	0.16677
1139.000000	0.2445
1140.000000	0.20985
1141.000000	0.15868
1142.000000	0.18439
1143.000000	0.25544
1144.000000	0.093074
1145.000000	0.11997
1146.000000	0.12949
1147.000000	0.048683
1148.000000	0.2223
1149.000000	0.18034
1150.000000	0.10054
1151.000000	0.16791
1152.000000	0.20427
1153.000000	0.19647
1154.000000	0.11776
1155.000000	0.2581
1156.000000	0.23164
1157.000000	0.25929
1158.000000	0.25696
1159.000000	0.27761
1160.000000	0.23625
1161.000000	0.28628
1162.000000	0.28839
1163.000000	0.38534
1164.000000	0.33086
1165.000000	0.32005
1166.000000	0.30884
1167.000000	0.33753
1168.000000	0.34541
1169.000000	0.34826
1170.000000	0.37746
1171.000000	0.36899
1172.000000	0.37434
1173.000000	0.37565
1174.000000	0.27787
1175.000000	0.37437
1176.000000	0.39437
1177.000000	0.39084
1178.000000	0.29843
1179.000000	0.40016
1180.000000	0.36491
1181.000000	0.37681
1182.000000	0.26816
1183.000000	0.36318
1184.000000	0.34782
1185.000000	0.33763
1186.000000	0.39499
1187.000000	0.37742
1188.000000	0.27802
1189.000000	0.34437
1190.000000	0.38289
1191.000000	0.37
1192.000000	0.39198
1193.000000	0.37635
1194.000000	0.38833
1195.000000	0.37028
1196.000000	0.35741
1197.000000	0.39507
1198.000000	0.35948
1199.000000	0.30258
1200.000000	0.37131
1201.000000	0.36216
1202.000000	0.36223
1203.000000	0.36144
1204.000000	0.30216
1205.000000	0.36382
1206.000000	0.40008
1207.000000	0.35797
1208.000000	0.36089
1209.000000	0.34492
1210.000000	0.37736
1211.000000	0.35165
1212.000000	0.35386
1213.000000	0.39077
1214.000000	0.36145
1215.000000	0.35629
1216.000000	0.38819
1217.000000	0.37902
1218.000000	0.38238
1219.000000	0.37188
1220.000000	0.38135
1221.000000	0.38857
1222.000000	0.37705
1223.000000	0.37096
1224.000000	0.37435
1225.000000	0.38619
1226.000000	0.39105
1227.000000	0.36186
1228.000000	0.38972
1229.000000	0.39028
1230.000000	0.38433
1231.000000	0.39498
1232.000000	0.39023
1233.000000	0.38001
1234.000000	0.39346
1235.000000	0.38922
1236.000000	0.3926
1237.000000	0.3879
1238.000000	0.39171
1239.000000	0.38733
1240.000000	0.38573
1241.000000	0.38677
1242.000000	0.3872
1243.000000	0.38311
1244.000000	0.38124
1245.000000	0.38232
1246.000000	0.38477
1247.000000	0.38313
1248.000000	0.38412
1249.000000	0.38502
1250.000000	0.38286
1251.000000	0.37915
1252.000000	0.3778
1253.000000	0.37514
1254.000000	0.37175
1255.000000	0.37764
1256.000000	0.36894
1257.000000	0.36486
1258.000000	0.37291
1259.000000	0.35987
1260.000000	0.3631
1261.000000	0.34669
1262.000000	0.33344
1263.000000	0.33726
1264.000000	0.3132
1265.000000	0.33348
1266.000000	0.32476
1267.000000	0.32721
1268.000000	0.31238
1269.000000	0.20831
1270.000000	0.32657
1271.000000	0.34397
1272.000000	0.34442
1273.000000	0.34231
1274.000000	0.34222
1275.000000	0.34743
1276.000000	0.3513
1277.000000	0.35391
1278.000000	0.36029
1279.000000	0.35774
1280.000000	0.35563
1281.000000	0.3483
1282.000000	0.31545
1283.000000	0.34446
1284.000000	0.35586
1285.000000	0.35859
1286.000000	0.36125
1287.000000	0.35707
1288.000000	0.35519
1289.000000	0.34669
1290.000000	0.34959
1291.000000	0.35385
1292.000000	0.33565
1293.000000	0.34945
1294.000000	0.3424
1295.000000	0.34321
1296.000000	0.33013
1297.000000	0.31475
1298.000000	0.33202
1299.000000	0.3461
1300.000000	0.29946
1301.000000	0.30718
1302.000000	0.33205
1303.000000	0.29364
1304.000000	0.25518
1305.000000	0.32536
1306.000000	0.32598
1307.000000	0.25972
1308.000000	0.29435
1309.000000	0.32571
1310.000000	0.2557
1311.000000	0.28316
1312.000000	0.28293
1313.000000	0.26615
1314.000000	0.24493
1315.000000	0.24278
1316.000000	0.27521
1317.000000	0.26509
1318.000000	0.28291
1319.000000	0.22925
1320.000000	0.22091
1321.000000	0.25485
1322.000000	0.25786
1323.000000	0.19889
1324.000000	0.22417
1325.000000	0.27492
1326.000000	0.23949
1327.000000	0.22738
1328.000000	0.20039
1329.000000	0.1519
1330.000000	0.19592
1331.000000	0.12395
1332.000000	0.12479
1333.000000	0.17365
1334.000000	0.14484
1335.000000	0.19763
1336.000000	0.15699
1337.000000	0.14084
1338.000000	0.15238
1339.000000	0.15133
1340.000000	0.14407
1341.000000	0.14588
1342.000000	0.15236
1343.000000	0.10892
1344.000000	0.064874
1345.000000	0.093475
1346.000000	0.049922
1347.000000	0.051582
1348.000000	0.0040747
1349.000000	0.013933
1350.000000	0.013818
1351.000000	0.0039932
1352.000000	0.001308
1353.000000	8.2897e-05
1354.000000	0.00025026
1355.000000	3.1089e-06
1356.000000	4.1475e-05
1357.000000	6.1941e-05
1358.000000	3.6199e-06
1359.000000	6.3379e-07
1360.000000	1.8473e-06
1361.000000	4.1544e-09
1362.000000	1.5603e-11
1363.000000	2.7246e-06
1364.000000	1.1732e-06
1365.000000	7.8361e-12
1366.000000	1.1044e-05
1367.000000	4.2967e-06
1368.000000	1.2767e-13
1369.000000	4.4615e-07
1370.000000	2.5218e-07
1371.000000	1.7041e-08
1372.000000	2.3752e-06
1373.000000	3.8355e-05
1374.000000	0.00015479
1375.000000	0.00027932
1376.000000	0.00022246
1377.000000	0.00010601
1378.000000	0.00095826
1379.000000	4.5083e-05
1380.000000	7.0518e-05
1381.000000	2.0583e-06
1382.000000	2.2282e-06
1383.000000	3.8208e-08
1384.000000	5.3551e-07
1385.000000	1.8144e-06
1386.000000	2.1894e-06
1387.000000	0.00017278
1388.000000	3.4968e-06
1389.000000	0.00050466
1390.000000	0.0004285
1391.000000	0.0002987
1392.000000	2.0661e-05
1393.000000	0.00010067
1394.000000	6.5632e-05
1395.000000	5.8348e-07
1396.000000	5.4945e-09
1397.000000	4.2643e-05
1398.000000	0.0011044
1399.000000	0.00070619
1400.000000	2.8229e-09
1401.000000	9.1539e-09
1402.000000	0.001596
1403.000000	0.00207
1404.000000	0.00064276
1405.000000	3.1706e-07
1406.000000	0.0017791
1407.000000	0.0001519
1408.000000	0.0014353
1409.000000	0.00053889
1410.000000	0.00040607
1411.000000	0.0018403
1412.000000	0.0022977
1413.000000	0.020406
1414.000000	0.00031799
1415.000000	0.00016057
1416.000000	0.031082
1417.000000	0.01028
1418.000000	0.011855
1419.000000	0.0018752
1420.000000	0.007234
1421.000000	0.0080146
1422.000000	0.040491
1423.000000	0.0080648
1424.000000	0.014849
1425.000000	0.022611
1426.000000	0.024311
1427.000000	0.04333
1428.000000	0.0039894
1429.000000	0.033262
1430.000000	0.053881
1431.000000	0.04388
1432.000000	0.0022055
1433.000000	0.03136
1434.000000	0.018349
1435.000000	0.018748
1436.000000	0.033568
1437.000000	0.026157
1438.000000	0.011613
1439.000000	0.044672
1440.000000	0.034667
1441.000000	0.027842
1442.000000	0.031797
1443.000000	0.039452
1444.000000	0.054089
1445.000000	0.043558
1446.000000	0.020306
1447.000000	0.031838
1448.000000	0.1016
1449.000000	0.089717
1450.000000	0.024104
1451.000000	0.0099129
1452.000000	0.054817
1453.000000	0.072048
1454.000000	0.12083
1455.000000	0.05815
1456.000000	0.077785
1457.000000	0.10279
1458.000000	0.11983
1459.000000	0.14319
1460.000000	0.075079
1461.000000	0.079345
1462.000000	0.11473
1463.000000	0.038014
1464.000000	0.13335
1465.000000	0.082076
1466.000000	0.057327
1467.000000	0.031714
1468.000000	0.067646
1469.000000	0.08337
1470.000000	0.043694
1471.000000	0.015704
1472.000000	0.041138
1473.000000	0.061724
1474.000000	0.085556
1475.000000	0.16209
1476.000000	0.060477
1477.000000	0.061316
1478.000000	0.055817
1479.000000	0.10545
1480.000000	0.05352
1481.000000	0.10168
1482.000000	0.051621
1483.000000	0.13097
1484.000000	0.1212
1485.000000	0.11026
1486.000000	0.10881
1487.000000	0.053501
1488.000000	0.083052
1489.000000	0.16712
1490.000000	0.15398
1491.000000	0.17418
1492.000000	0.14486
1493.000000	0.15994
1494.000000	0.17936
1495.000000	0.1608
1496.000000	0.14847
1497.000000	0.20115
1498.000000	0.16707
1499.000000	0.19157
1500.000000	0.22055
1501.000000	0.23362
1502.000000	0.20559
1503.000000	0.16285
1504.000000	0.14123
1505.000000	0.16206
1506.000000	0.22677
1507.000000	0.22453
1508.000000	0.21391
1509.000000	0.16464
1510.000000	0.23804
1511.000000	0.23297
1512.000000	0.22939
1513.000000	0.21334
1514.000000	0.19942
1515.000000	0.23464
1516.000000	0.22681
1517.000000	0.22018
1518.000000	0.22269
1519.000000	0.21587
1520.000000	0.23359
1521.000000	0.24285
1522.000000	0.23294
1523.000000	0.24726
1524.000000	0.24318
1525.000000	0.2286
1526.000000	0.23622
1527.000000	0.23159
1528.000000	0.24663
1529.000000	0.24061
1530.000000	0.22541
1531.000000	0.23824
1532.000000	0.24587
1533.000000	0.24477
1534.000000	0.23753
1535.000000	0.23573
1536.000000	0.2426
1537.000000	0.2415
1538.000000	0.24031
1539.000000	0.24114
1540.000000	0.23403
1541.000000	0.23771
1542.000000	0.23793
1543.000000	0.24042
1544.000000	0.24045
1545.000000	0.24481
1546.000000	0.24284
1547.000000	0.24131
1548.000000	0.2357
1549.000000	0.24242
1550.000000	0.2393
1551.000000	0.23991
1552.000000	0.24103
1553.000000	0.24058
1554.000000	0.23475
1555.000000	0.23729
1556.000000	0.23331
1557.000000	0.23999
1558.000000	0.23809
1559.000000	0.23773
1560.000000	0.23561
1561.000000	0.23945
1562.000000	0.23727
1563.000000	0.23648
1564.000000	0.23291
1565.000000	0.23701
1566.000000	0.23273
1567.000000	0.23328
1568.000000	0.22809
1569.000000	0.22571
1570.000000	0.2144
1571.000000	0.2085
1572.000000	0.21085
1573.000000	0.20759
1574.000000	0.2141
1575.000000	0.21255
1576.000000	0.21881
1577.000000	0.19156
1578.000000	0.20853
1579.000000	0.20991
1580.000000	0.21691
1581.000000	0.2205
1582.000000	0.2145
1583.000000	0.21946
1584.000000	0.22076
1585.000000	0.23011
1586.000000	0.22739
1587.000000	0.22502
1588.000000	0.22328
1589.000000	0.2066
1590.000000	0.21502
1591.000000	0.21517
1592.000000	0.22432
1593.000000	0.22972
1594.000000	0.22787
1595.000000	0.22964
1596.000000	0.21744
1597.000000	0.21959
1598.000000	0.22607
1599.000000	0.21525
1600.000000	0.21179
1601.000000	0.19858
1602.000000	0.1994
1603.000000	0.19926
1604.000000	0.20322
1605.000000	0.21066
1606.000000	0.21472
1607.000000	0.20724
1608.000000	0.20455
1609.000000	0.20222
1610.000000	0.19359
1611.000000	0.20177
1612.000000	0.20528
1613.000000	0.211
1614.000000	0.21205
1615.000000	0.21441
1616.000000	0.20503
1617.000000	0.20872
1618.000000	0.21661
1619.000000	0.21437
1620.000000	0.20858
1621.000000	0.20842
1622.000000	0.21199
1623.000000	0.21638
1624.000000	0.21659
1625.000000	0.21225
1626.000000	0.21395
1627.000000	0.2149
1628.000000	0.21534
1629.000000	0.21544
1630.000000	0.2111
1631.000000	0.21264
1632.000000	0.21278
1633.000000	0.20785
1634.000000	0.20797
1635.000000	0.20875
1636.000000	0.21028
1637.000000	0.20279
1638.000000	0.19662
1639.000000	0.19678
1640.000000	0.19221
1641.000000	0.19621
1642.000000	0.1973
1643.000000	0.19245
1644.000000	0.19975
1645.000000	0.195
1646.000000	0.19436
1647.000000	0.20344
1648.000000	0.19354
1649.000000	0.19541
1650.000000	0.2013
1651.000000	0.1864
1652.000000	0.19994
1653.000000	0.19909
1654.000000	0.19293
1655.000000	0.1987
1656.000000	0.19755
1657.000000	0.19865
1658.000000	0.20101
1659.000000	0.19774
1660.000000	0.20013
1661.000000	0.20061
1662.000000	0.19637
1663.000000	0.19929
1664.000000	0.19807
1665.000000	0.18986
1666.000000	0.16042
1667.000000	0.18889
1668.000000	0.19239
1669.000000	0.19292
1670.000000	0.19876
1671.000000	0.19619
1672.000000	0.18963
1673.000000	0.19396
1674.000000	0.1935
1675.000000	0.19158
1676.000000	0.18965
1677.000000	0.19042
1678.000000	0.18763
1679.000000	0.1911
1680.000000	0.18443
1681.000000	0.17447
1682.000000	0.1827
1683.000000	0.18756
1684.000000	0.17766
1685.000000	0.1913
1686.000000	0.18866
1687.000000	0.18382
1688.000000	0.18855
1689.000000	0.18591
1690.000000	0.18419
1691.000000	0.17329
1692.000000	0.18587
1693.000000	0.18968
1694.000000	0.18381
1695.000000	0.1882
1696.000000	0.1878
1697.000000	0.16261
1698.000000	0.18618
1699.000000	0.18505
1700.000000	0.17988
1702.000000	0.18366
1705.000000	0.17813
1710.000000	0.16927
1715.000000	0.17087
1720.000000	0.16848
1725.000000	0.1605
1730.000000	0.15691
1735.000000	0.14563
1740.000000	0.15205
1745.000000	0.14
1750.000000	0.1498
1755.000000	0.13839
1760.000000	0.14466
1765.000000	0.12019
1770.000000	0.12819
1775.000000	0.10393
1780.000000	0.091223
1785.000000	0.069898
1790.000000	0.080708
1795.000000	0.04263
1800.000000	0.028918
1805.000000	0.013464
1810.000000	0.008808
1815.000000	0.002983
1820.000000	0.00090016
1825.000000	0.0011616
1830.000000	4.7438e-06
1835.000000	5.8518e-06
1840.000000	5.7169e-08
1845.000000	5.7133e-06
1850.000000	2.7354e-06
1855.000000	2.5906e-07
1860.000000	1.0178e-05
1865.000000	1.5554e-05
1870.000000	2.4436e-10
1875.000000	4.1396e-10
1880.000000	7.1195e-05
1885.000000	4.0337e-05
1890.000000	0.00020535
1895.000000	0.00011918
1900.000000	7.9418e-07
1905.000000	5.2186e-07
1910.000000	2.1293e-05
1915.000000	1.8432e-05
1920.000000	0.00041648
1925.000000	0.00086504
1930.000000	0.00051039
1935.000000	0.0033194
1940.000000	0.0030317
1945.000000	0.010032
1950.000000	0.015481
1955.000000	0.0092857
1960.000000	0.020259
1965.000000	0.026407
1970.000000	0.045137
1975.000000	0.062678
1980.000000	0.069726
1985.000000	0.076668
1990.000000	0.079015
1995.000000	0.074942
2000.000000	0.035299
2005.000000	0.013885
2010.000000	0.036787
2015.000000	0.024676
2020.000000	0.041653
2025.000000	0.068525
2030.000000	0.078581
2035.000000	0.089266
2040.000000	0.08318
2045.000000	0.084593
2050.000000	0.063129
2055.000000	0.051047
2060.000000	0.064322
2065.000000	0.057532
2070.000000	0.061074
2075.000000	0.072012
2080.000000	0.080716
2085.000000	0.07913
2090.000000	0.083028
2095.000000	0.083635
2100.000000	0.080275
2105.000000	0.086804
2110.000000	0.083539
2115.000000	0.08542
2120.000000	0.081611
2125.000000	0.082698
2130.000000	0.083758
2135.000000	0.084002
2140.000000	0.084736
2145.000000	0.083544
2150.000000	0.079029
2155.000000	0.079215
2160.000000	0.078595
2165.000000	0.071261
2170.000000	0.076662
2175.000000	0.07522
2180.000000	0.076492
2185.000000	0.069716
2190.000000	0.074005
2195.000000	0.073943
2200.000000	0.066668
2205.000000	0.069302
2210.000000	0.074267
2215.000000	0.071432
2220.000000	0.072802
2225.000000	0.070682
2230.000000	0.070993
2235.000000	0.069627
2240.000000	0.06867
2245.000000	0.066548
2250.000000	0.067617
2255.000000	0.063648
2260.000000	0.062961
2265.000000	0.064115
2270.000000	0.061052
2275.000000	0.060263
2280.000000	0.062398
2285.000000	0.059388
2290.000000	0.059526
2295.000000	0.057801
2300.000000	0.055503
2305.000000	0.055838
2310.000000	0.060268
2315.000000	0.054869
2320.000000	0.049109
2325.000000	0.053054
2330.000000	0.053631
2335.000000	0.05471
2340.000000	0.043269
2345.000000	0.04861
2350.000000	0.039289
2355.000000	0.044901
2360.000000	0.047516
2365.000000	0.046737
2370.000000	0.029159
2375.000000	0.041763
2380.000000	0.040257
2385.000000	0.029169
2390.000000	0.035116
2395.000000	0.038414
2400.000000	0.041861
2405.000000	0.031866
2410.000000	0.032075
2415.000000	0.025904
2420.000000	0.025234
2425.000000	0.031403
2430.000000	0.042818
2435.000000	0.014135
2440.000000	0.041095
2445.000000	0.019776
2450.000000	0.012946
2455.000000	0.023684
2460.000000	0.0318
2465.000000	0.023026
2470.000000	0.015954
2475.000000	0.015698
2480.000000	0.0076721
2485.000000	0.0053554
2490.000000	0.0033526
2495.000000	0.0027474
2500.000000	0.0067449
2505.000000	0.0014505
2510.000000	0.002116
2515.000000	0.00049615
2520.000000	0.0003543
2525.000000	3.9575e-05
2530.000000	6.0793e-07
2535.000000	1.6731e-07
2540.000000	3.6047e-07
2545.000000	5.1368e-11
2550.000000	2.6963e-13
2555.000000	9.9693e-10
2560.000000	2.963e-11
2565.000000	1.5226e-14
2570.000000	0.0
2575.000000	0.0
2580.000000	0.0
2585.000000	0.0
2590.000000	0.0
2595.000000	0.0
2600.000000	0.0
2605.000000	0.0
2610.000000	0.0
2615.000000	0.0
2620.000000	0.0
2625.000000	0.0
2630.000000	0.0
2635.000000	3.7256e-16
2640.000000	1.119e-16
2645.000000	0.0
2650.000000	0.0
2655.000000	0.0
2660.000000	0.0
2665.000000	0.0
2670.000000	0.0
2675.000000	0.0
2680.000000	0.0
2685.000000	0.0
2690.000000	0.0
2695.000000	0.0
2700.000000	0.0
2705.000000	0.0
2710.000000	0.0
2715.000000	0.0
2720.000000	0.0
2725.000000	0.0
2730.000000	0.0
2735.000000	0.0
2740.000000	0.0
2745.000000	0.0
2750.000000	0.0
2755.000000	0.0
2760.000000	0.0
2765.000000	0.0
2770.000000	0.0
2775.000000	0.0
2780.000000	0.0
2785.000000	0.0
2790.000000	1.2116e-16
2795.000000	3.5699e-16
2800.000000	1.6111e-12
2805.000000	6.5963e-14
2810.000000	3.9343e-10
2815.000000	2.8054e-10
2820.000000	2.0127e-11
2825.000000	1.7247e-07
2830.000000	3.8218e-06
2835.000000	2.0847e-10
2840.000000	1.9217e-07
2845.000000	3.9766e-05
2850.000000	1.1335e-06
2855.000000	4.3979e-07
2860.000000	2.4855e-05
2865.000000	0.00016434
2870.000000	6.1887e-06
2875.000000	0.000384
2880.000000	0.0002424
2885.000000	0.00044506
2890.000000	0.00018285
2895.000000	0.0026159
2900.000000	0.00079676
2905.000000	0.00010894
2910.000000	0.0026725
2915.000000	0.0012353
2920.000000	0.0028422
2925.000000	0.0010638
2930.000000	0.0057788
2935.000000	0.006372
2940.000000	0.0015976
2945.000000	0.0014225
2950.000000	0.0051321
2955.000000	0.0022964
2960.000000	0.0045189
2965.000000	0.0073113
2970.000000	0.00034634
2975.000000	0.00083972
2980.000000	0.0013152
2985.000000	0.0068436
2990.000000	0.010103
2995.000000	0.0042021
3000.000000	0.0077121
3005.000000	0.0028406
3010.000000	0.0067295
3015.000000	0.0054589
3020.000000	0.00062349
3025.000000	0.0073824
3030.000000	0.0059771
3035.000000	0.0024583
3040.000000	0.0019914
3045.000000	0.0041408
3050.000000	0.0010154
3055.000000	0.00028476
3060.000000	0.0061978
3065.000000	0.0028634
3070.000000	0.0017204
3075.000000	0.0059224
3080.000000	0.0035621
3085.000000	0.0017376
3090.000000	0.0023407
3095.000000	0.00064492
3100.000000	0.0043321
3105.000000	0.00090707
3110.000000	0.00083234
3115.000000	0.0022318
3120.000000	0.0096635
3125.000000	0.0029805
3130.000000	0.0056686
3135.000000	0.011261
3140.000000	0.0032703
3145.000000	0.0031989
3150.000000	0.0065651
3155.000000	0.005544
3160.000000	0.0090796
3165.000000	0.0138
3170.000000	0.012321
3175.000000	0.009086
3180.000000	0.010455
3185.000000	0.007955
3190.000000	0.0041719
3195.000000	0.0026499
3200.000000	0.00043144
3205.000000	0.00030478
3210.000000	0.00013415
3215.000000	0.00048949
3220.000000	0.0015828
3225.000000	0.00019551
3230.000000	0.00033522
3235.000000	0.0071737
3240.000000	0.0036887
3245.000000	0.00072275
3250.000000	0.0025662
3255.000000	0.0097826
3260.000000	0.0012056
3265.000000	0.0024079
3270.000000	0.001199
3275.000000	0.005829
3280.000000	0.002818
3285.000000	0.010947
3290.000000	0.008614
3295.000000	0.0012034
3300.000000	0.0017503
3305.000000	0.0038769
3310.000000	0.0038593
3315.000000	1.5883e-05
3320.000000	5.9061e-05
3325.000000	0.0034644
3330.000000	0.0045899
3335.000000	0.0089301
3340.000000	0.0034075
3345.000000	0.0034875
3350.000000	0.0079077
3355.000000	0.0035773
3360.000000	0.0051638
3365.000000	0.0070869
3370.000000	0.0038827
3375.000000	0.0083363
3380.000000	0.00504
3385.000000	0.0073856
3390.000000	0.0097313
3395.000000	0.0094277
3400.000000	0.012354
3405.000000	0.0044047
3410.000000	0.0069938
3415.000000	0.0071889
3420.000000	0.013006
3425.000000	0.0098846
3430.000000	0.0085835
3435.000000	0.01141
3440.000000	0.0079355
3445.000000	0.011177
3450.000000	0.011014
3455.000000	0.0082115
3460.000000	0.012382
3465.000000	0.0097009
3470.000000	0.01212
3475.000000	0.010813
3480.000000	0.011091
3485.000000	0.011949
3490.000000	0.010294
3495.000000	0.012117
3500.000000	0.011773
3505.000000	0.011667
3510.000000	0.011817
3515.000000	0.011349
3520.000000	0.011963
3525.000000	0.011275
3530.000000	0.010976
3535.000000	0.0093255
3540.000000	0.0089053
3545.000000	0.0094086
3550.000000	0.010398
3555.000000	0.0089368
3560.000000	0.010648
3565.000000	0.010703
3570.000000	0.0082224
3575.000000	0.0085238
3580.000000	0.010044
3585.000000	0.0090383
3590.000000	0.0093188
3595.000000	0.0095327
3600.000000	0.010116
3605.000000	0.010211
3610.000000	0.0093423
3615.000000	0.0093357
3620.000000	0.011446
3625.000000	0.01009
3630.000000	0.0098099
3635.000000	0.010158
3640.000000	0.011322
3645.000000	0.010453
3650.000000	0.0099826
3655.000000	0.010825
3660.000000	0.010762
3665.000000	0.01011
3670.000000	0.00779
3675.000000	0.0047613
3680.000000	0.008214
3685.000000	0.0093038
3690.000000	0.009554
3695.000000	0.0099875
3700.000000	0.010722
3705.000000	0.010614
3710.000000	0.0092278
3715.000000	0.0090906
3720.000000	0.010233
3725.000000	0.010549
3730.000000	0.0091415
3735.000000	0.0084636
3740.000000	0.0087249
3745.000000	0.010185
3750.000000	0.0091584
3755.000000	0.0088636
3760.000000	0.0087365
3765.000000	0.0084274
3770.000000	0.0089924
3775.000000	0.0089207
3780.000000	0.0094348
3785.000000	0.0086832
3790.000000	0.0076425
3795.000000	0.008738
3800.000000	0.0097125
3805.000000	0.0091732
3810.000000	0.008128
3815.000000	0.0076465
3820.000000	0.0095163
3825.000000	0.0093684
3830.000000	0.0094534
3835.000000	0.00758
3840.000000	0.0088444
3845.000000	0.0086511
3850.000000	0.0086974
3855.000000	0.0083828
3860.000000	0.0078753
3865.000000	0.0079785
3870.000000	0.0072509
3875.000000	0.006661
3880.000000	0.0064363
3885.000000	0.0066703
3890.000000	0.0067785
3895.000000	0.0073692
3900.000000	0.0078118
3905.000000	0.0078131
3910.000000	0.0070328
3915.000000	0.0068863
3920.000000	0.0068465
3925.000000	0.0067531
3930.000000	0.0069482
3935.000000	0.0072473
3940.000000	0.007295
3945.000000	0.0074311
3950.000000	0.0075158
3955.000000	0.0076066
3960.000000	0.0076341
3965.000000	0.0076905
3970.000000	0.0075671
3975.000000	0.0073984
3980.000000	0.0072774
3985.000000	0.0073275
3990.000000	0.0072676
3995.000000	0.0071072
4000.000000	0.0070026
